Time,Fp1,Fp2,F3,F4,C3,C4,P3,P4
0.0,-0.00018989256286621093,-0.00014184568786621094,-0.00010737303924560547,2.846679878234863e-05,-0.00010844725799560547,-3.6474609375e-05,-7.3583984375e-05,0.000173486328125
0.002,-0.00018041990661621092,-0.00013735350036621092,-0.00010004882049560546,3.2275390624999996e-05,-0.00010336913299560546,-3.3642578125e-05,-6.9384765625e-05,0.00017709960937499998
0.004,-0.00016699217224121093,-0.00013505857849121093,-0.00010576171112060547,3.5351562499999996e-05,-0.00010195311737060547,-2.98828125e-05,-6.796874237060547e-05,0.00018007812499999998
0.006,-0.00016020506286621092,-0.00013295896911621094,-0.00010532225799560546,3.8037109375e-05,-9.975585174560547e-05,-2.7099607467651366e-05,-6.586913299560547e-05,0.000183349609375
0.008,-0.00015932615661621094,-0.00012446288299560547,-0.00010415038299560547,4.1162109375e-05,-9.848632049560547e-05,-2.4462890625e-05,-6.479491424560547e-05,0.000184619140625
0.01,-0.00015429685974121092,-0.00011582030487060546,-9.736327362060546e-05,5.1171874999999995e-05,-8.974609375e-05,-1.3281251907348632e-05,-5.5468749999999996e-05,0.00019501953125
0.012,-0.00017109373474121092,-0.00012607421112060545,-0.00010478514862060547,4.570312118530273e-05,-9.716796112060547e-05,-1.6992189407348634e-05,-6.220703124999999e-05,0.00018876953125
0.014,-0.00018354490661621093,-0.00013432615661621093,-0.00011645507049560547,3.9306640625e-05,-0.00010424803924560546,-2.5439451217651365e-05,-7.006835174560547e-05,0.000181201171875
0.016,-0.00018154295349121093,-0.00013642576599121094,-0.00012197264862060546,3.408203125e-05,-0.00010761717987060547,-3.1249998092651366e-05,-7.402342987060547e-05,0.0001775390625
0.018,-0.00017592771911621093,-0.00013305662536621093,-0.00011557616424560546,3.9208984375e-05,-0.00010395507049560546,-2.5048826217651364e-05,-6.889647674560546e-05,0.00018325195312499998
0.02,-0.00018969725036621093,-0.00014047850036621093,-0.00011850585174560546,3.2470703125e-05,-0.00011040038299560546,-3.1689451217651365e-05,-7.534178924560547e-05,0.000176904296875
0.022,-0.00018422850036621093,-0.00013159178161621093,-0.00010717772674560546,3.5986328125e-05,-0.00010385741424560546,-2.9443359375e-05,-6.928710174560546e-05,0.00017954101562499999
0.024,-0.00016933592224121092,-0.00011533202362060546,-9.648436737060546e-05,4.9999999999999996e-05,-9.404296112060547e-05,-1.77734375e-05,-6.054686737060547e-05,0.00018896484374999998
0.026,-0.00016137693786621093,-0.00010971678924560547,-9.291991424560546e-05,5.8154296875e-05,-8.842772674560547e-05,-1.0693361282348633e-05,-5.5517578125e-05,0.000196142578125
0.028,-0.00017836912536621093,-0.00012583007049560545,-0.00010161132049560546,4.6337890625e-05,-9.5166015625e-05,-1.9677736282348633e-05,-6.333007812499999e-05,0.000187646484375
0.03,-0.00017592771911621093,-0.00013393553161621094,-0.00010922850799560547,4.3603515624999995e-05,-9.692382049560547e-05,-1.8701169967651366e-05,-6.225585174560546e-05,0.00018920898437499998
0.032,-0.00016899412536621093,-0.00013911131286621094,-0.00011606444549560546,3.8427734374999996e-05,-0.00010571288299560546,-2.3388669967651368e-05,-6.958007049560547e-05,0.000183642578125
0.034,-0.00016777342224121093,-0.00013554685974121093,-0.00011191405487060547,3.4374999999999995e-05,-0.00011259764862060546,-2.9296873092651368e-05,-7.792967987060547e-05,0.00017626953125
0.036,-0.00017768553161621092,-0.00013413084411621092,-0.00011547850799560547,2.954101753234863e-05,-0.00011665038299560546,-3.3544921875e-05,-8.198241424560547e-05,0.00017094726562499998
0.038,-0.00018315428161621092,-0.00013588865661621092,-0.00012211913299560546,3.4326171875e-05,-0.00011069335174560547,-2.8759765624999997e-05,-7.485350799560547e-05,0.000177685546875
0.04,-0.00018281248474121093,-0.00013828123474121093,-0.00011660155487060547,3.837890625e-05,-0.00010488280487060547,-2.6855466842651365e-05,-7.226561737060547e-05,0.00017958984374999998
0.042,-0.00017080076599121092,-0.00012705077362060545,-9.726561737060547e-05,4.755859375e-05,-9.580077362060547e-05,-1.796875190734863e-05,-6.552734374999999e-05,0.0001869140625
0.044,-0.00016572264099121094,-0.00012236327362060546,-9.501952362060546e-05,4.941405868530273e-05,-9.609374237060546e-05,-1.5136720657348633e-05,-6.2890625e-05,0.00019052734375
0.046,-0.00016503904724121093,-0.00012314452362060545,-9.541014862060547e-05,4.9316402435302734e-05,-9.501952362060546e-05,-1.6503908157348633e-05,-6.044921875e-05,0.0001908203125
0.048,-0.00017783201599121093,-0.00012685546112060548,-0.00010898436737060547,4.072265625e-05,-0.00010517577362060546,-2.6953123092651365e-05,-7.099608612060546e-05,0.00017958984374999998
0.05,-0.00017656248474121094,-0.00012070311737060546,-0.00010957030487060547,4.23828125e-05,-0.00010537108612060547,-2.4999998092651366e-05,-7.089842987060546e-05,0.00018007812499999998
0.052,-0.00017895506286621092,-0.00012690428924560547,-0.00011235350799560546,3.7255859374999996e-05,-0.00010961913299560546,-2.8173826217651366e-05,-7.358397674560546e-05,0.000178173828125
0.054,-0.00018442381286621094,-0.00013198240661621094,-0.00011323241424560546,3.090820503234863e-05,-0.00011440428924560546,-3.3642578125e-05,-7.924803924560546e-05,0.00017270507812499998
0.056,-0.00017875975036621094,-0.00013120115661621092,-0.00011069335174560547,3.5107425689697265e-05,-0.00011342772674560546,-2.9931638717651365e-05,-8.051757049560547e-05,0.000174755859375
0.058,-0.00016748045349121094,-0.00012470702362060547,-0.00010546874237060546,4.53125e-05,-0.00010449217987060546,-1.972656440734863e-05,-7.12890625e-05,0.00018525390624999998
0.06,-0.00017470701599121093,-0.00013681639099121092,-0.00011474608612060547,4.111328506469726e-05,-0.00011025389862060546,-2.4999998092651366e-05,-7.675780487060546e-05,0.00018203124999999998
0.062,-0.00018378904724121093,-0.00013349607849121094,-0.00011445311737060546,4.0332031249999997e-05,-0.00010478514862060547,-2.5097654342651366e-05,-7.060546112060546e-05,0.00018369140625
0.064,-0.00019086912536621093,-0.00011977538299560547,-0.00010698241424560547,4.1357421875e-05,-0.00010063475799560546,-2.2509763717651366e-05,-6.528319549560547e-05,0.000186572265625
0.066,-0.00018217771911621094,-0.00010952147674560546,-0.00010483397674560546,4.6435546874999995e-05,-9.458007049560547e-05,-1.7431638717651366e-05,-5.961913299560547e-05,0.000192724609375
0.068,-0.00017480467224121094,-0.00011005858612060547,-0.00010908202362060547,4.248046875e-05,-9.941405487060546e-05,-2.0507812499999998e-05,-6.445311737060546e-05,0.00018916015624999998
0.07,-0.00016166990661621092,-0.00010893553924560546,-0.00010561522674560547,4.6044921875e-05,-9.497069549560546e-05,-1.3232419967651366e-05,-5.7177726745605466e-05,0.000195947265625
0.072,-0.00016269529724121092,-0.00011376952362060547,-0.00010283202362060547,5.3808589935302734e-05,-9.218749237060546e-05,-6.0546903610229486e-06,-5.3027343749999994e-05,0.00020175781249999998
0.074,-0.00016972654724121093,-0.00011005858612060547,-0.00010507811737060546,5.703124618530273e-05,-9.238280487060546e-05,-5.566408634185791e-06,-5.439453125e-05,0.00020224609374999998
0.076,-0.00017636717224121093,-0.00010781249237060546,-0.00010771483612060547,5.390625e-05,-9.648436737060546e-05,-1.0351564407348633e-05,-5.9179687499999994e-05,0.0001974609375
0.078,-0.00016782225036621092,-0.00010375975799560546,-0.00010034178924560547,5.5712890625e-05,-9.370116424560547e-05,-7.177736282348633e-06,-5.7666015625e-05,0.000200439453125
0.08,-0.00015893553161621093,-0.00011313475799560547,-0.00010161132049560546,5.0927734374999995e-05,-9.545897674560546e-05,-1.2060548782348633e-05,-6.0205078124999997e-05,0.00019584960937499998
0.082,-0.00015839842224121093,-0.00011044921112060547,-0.00010478514862060547,5.2636718749999997e-05,-9.306639862060547e-05,-1.0644533157348633e-05,-5.8496093749999995e-05,0.00019736328125
0.084,-0.00016318357849121092,-0.00010781249237060546,-0.00010468749237060546,5.5175781249999995e-05,-9.062499237060547e-05,-8.789064407348632e-06,-5.419921875e-05,0.0001986328125
0.086,-0.00016152342224121094,-0.00010429686737060547,-0.00010644530487060546,5.576171493530273e-05,-8.710936737060546e-05,-7.421877861022949e-06,-4.94140625e-05,0.00020166015625
0.088,-0.00016035154724121093,-0.00010400389862060546,-0.00010351561737060546,5.52734375e-05,-8.681639862060547e-05,-8.203126907348633e-06,-4.912109375e-05,0.00020224609374999998
0.09,-0.00015815428161621093,-9.760741424560546e-05,-9.790038299560547e-05,6.606444549560546e-05,-8.178710174560547e-05,2.490232467651367e-06,-4.2919921874999996e-05,0.000210791015625
0.092,-0.00017333982849121094,-0.00010966796112060546,-0.00010449217987060546,5.8496093749999995e-05,-9.042967987060546e-05,-2.9296891689300534e-06,-5.0976558685302734e-05,0.00020400390625
0.094,-0.00018354490661621093,-0.00011674803924560546,-0.00011166991424560547,4.9853515625e-05,-9.965819549560546e-05,-1.3134767532348632e-05,-6.245116806030274e-05,0.000194189453125
0.096,-0.00018593748474121094,-0.00011845702362060547,-0.00011953124237060547,4.35546875e-05,-0.00010478514862060547,-1.923828125e-05,-6.835937499999999e-05,0.0001884765625
0.098,-0.00018266600036621092,-0.00011704100799560546,-0.00011372069549560546,4.6533203125e-05,-9.995116424560546e-05,-1.6748048782348633e-05,-6.254882431030273e-05,0.000191259765625
0.1,-0.00018520506286621093,-0.00012836912536621093,-0.00011381835174560546,3.8916015625e-05,-0.00010258788299560547,-2.338867378234863e-05,-6.5771484375e-05,0.00018520507812499999
0.102,-0.00017812498474121093,-0.00012431639862060546,-0.00010732421112060546,4.2871093749999995e-05,-9.833984375e-05,-2.138672065734863e-05,-6.455078124999999e-05,0.000184375
0.104,-0.00016552732849121093,-0.00011376952362060547,-9.277342987060546e-05,5.8007812499999995e-05,-8.5546875e-05,-9.277345657348633e-06,-5.488280868530273e-05,0.000194921875
0.106,-0.00015781248474121094,-0.00011171874237060546,-8.974608612060547e-05,6.513671112060547e-05,-7.734374999999999e-05,-1.953126788139343e-06,-4.472655868530273e-05,0.00020458984375
0.108,-0.00016582029724121093,-0.00011787108612060546,-9.960936737060547e-05,5.390625e-05,-8.173828125e-05,-1.0839845657348632e-05,-4.8437496185302736e-05,0.0001966796875
0.11,-0.00016416014099121092,-0.00011650389862060546,-9.970702362060547e-05,4.98046875e-05,-8.26171875e-05,-1.2597658157348633e-05,-4.833983993530273e-05,0.0001955078125
0.112,-0.00017788084411621093,-0.00011567382049560546,-0.00010170897674560547,4.7900390624999996e-05,-9.0087890625e-05,-1.4892580032348633e-05,-5.659179306030273e-05,0.000192822265625
0.114,-0.00017890623474121092,-0.00011337889862060547,-0.00010380858612060547,4.462890625e-05,-9.541015625e-05,-1.8359375e-05,-6.337890243530273e-05,0.00018964843749999998
0.116,-0.00017475584411621092,-0.00011235350799560546,-0.00010698241424560547,4.0966796875e-05,-9.790039062499999e-05,-2.153320503234863e-05,-6.665039062499999e-05,0.000185791015625
0.118,-0.00017060545349121094,-0.00011269530487060546,-0.00010253905487060547,4.62890625e-05,-9.394530487060547e-05,-1.6015626907348633e-05,-6.0937496185302734e-05,0.00019140624999999998
0.12,-0.00016801756286621093,-0.00011069335174560547,-9.829100799560546e-05,5.1416015624999996e-05,-8.764647674560547e-05,-1.1474611282348633e-05,-5.473632431030273e-05,0.00019731445312499998
0.122,-0.00016020506286621092,-0.00010532225799560546,-8.920897674560546e-05,6.118163681030273e-05,-7.5927734375e-05,-4.833985805511475e-06,-4.4873043060302735e-05,0.000204833984375
0.124,-0.00015717771911621093,-0.00010893553924560546,-9.311522674560547e-05,6.108398056030273e-05,-7.6708984375e-05,-3.5644545555114744e-06,-4.379882431030273e-05,0.00020444335937499998
0.126,-0.00016318357849121092,-0.00011416014862060546,-0.00010009764862060547,5.341796875e-05,-8.671874237060546e-05,7.812485694885253e-07,-5.400390243530273e-05,0.0002013671875
0.128,-0.00017827146911621094,-0.00012709960174560548,-0.00010786132049560547,4.5263671874999995e-05,-9.985350799560547e-05,-2.0019540786743163e-06,-6.665039062499999e-05,0.000192431640625
0.13,-0.00016357420349121093,-0.00011425780487060547,-8.720702362060547e-05,5.722655868530273e-05,-8.22265625e-05,-1.2109376907348633e-05,-5.136718368530273e-05,0.00019619140625
0.132,-0.00015507810974121092,-0.00011249999237060546,-8.203124999999999e-05,5.64453125e-05,-7.773437499999999e-05,-1.89453125e-05,-4.804687118530273e-05,0.00019511718749999998
0.134,-0.00015810545349121094,-0.00011660155487060547,-8.759765625e-05,5.5664062499999995e-05,-8.1640625e-05,-1.9140625e-05,-5.0683593749999995e-05,0.0001955078125
0.136,-0.00015576170349121092,-0.00011054686737060547,-9.140624237060546e-05,6.1328125e-05,-7.636718749999999e-05,-1.201171875e-05,-4.589843368530273e-05,0.00019921875
0.138,-0.00014394529724121092,-9.785155487060546e-05,-7.099609375e-05,7.070311737060547e-05,-6.738281249999999e-05,1.9531106948852539e-07,-4.003905868530273e-05,0.00020712890624999998
0.14,-0.00015087889099121092,-9.921874237060547e-05,-7.753905487060546e-05,6.914061737060546e-05,-7.1484375e-05,-3.906264305114746e-07,-4.4824214935302734e-05,0.00020566406249999998
0.142,-0.00014985350036621092,-9.692382049560547e-05,-8.286132049560547e-05,7.075194549560546e-05,-6.850585937499999e-05,1.6113264560699463e-06,-4.1748043060302734e-05,0.000209423828125
0.144,-0.00015200193786621093,-9.418944549560547e-05,-7.934569549560546e-05,7.055663299560547e-05,-6.4990234375e-05,3.466795206069946e-06,-3.627929306030273e-05,0.00021381835937499998
0.146,-0.00015903318786621094,-9.506835174560547e-05,-7.221678924560546e-05,7.055663299560547e-05,-6.235351181030273e-05,3.857422113418579e-06,-3.432616806030273e-05,0.000214111328125
0.148,-0.00017187498474121094,-0.00011054686737060547,-8.076171112060547e-05,6.640624237060547e-05,-6.923828124999999e-05,-1.0742204189300536e-06,-4.208983993530273e-05,0.00020810546874999998
0.15,-0.00015800779724121092,-0.00011123046112060546,-8.408202362060547e-05,6.884764862060547e-05,-6.728515625e-05,3.320310592651367e-06,-3.857421875e-05,0.0002119140625
0.152,-0.00014799803161621094,-0.00010717772674560546,-8.120116424560546e-05,7.016600799560547e-05,-6.4013671875e-05,7.373044967651367e-06,-3.344726181030273e-05,0.00021430664062499998
0.154,-0.00014184568786621094,-9.956053924560546e-05,-7.739257049560546e-05,7.182616424560547e-05,-6.0693355560302734e-05,7.568358421325683e-06,-3.149413681030273e-05,0.000214697265625
0.156,-0.00014082029724121094,-0.00010527342987060547,-8.017577362060547e-05,7.207030487060547e-05,-6.689453124999999e-05,6.640624046325683e-06,-3.769530868530273e-05,0.00021025390625
0.158,-0.00014121092224121093,-0.00011669921112060547,-8.085936737060546e-05,7.246092987060546e-05,-6.865233612060546e-05,8.007810592651368e-06,-3.925780868530273e-05,0.00020966796875
0.16,-0.00014985350036621092,-0.00011762694549560546,-8.618163299560547e-05,6.411132049560546e-05,-7.4365234375e-05,-7.324228286743163e-07,-4.526366806030273e-05,0.000203857421875
0.162,-0.00015180662536621093,-0.00010122069549560547,-8.325194549560547e-05,6.274413681030273e-05,-7.1728515625e-05,-1.7089853286743164e-06,-4.165038681030273e-05,0.00020815429687499998
0.164,-0.00014775389099121094,-0.00010361327362060546,-8.164061737060547e-05,6.582030487060546e-05,-7.01171875e-05,8.789045810699462e-07,-4.0332027435302734e-05,0.00021044921875
0.166,-0.00014892576599121092,-0.00011035155487060546,-7.841796112060547e-05,6.640624999999999e-05,-6.62109375e-05,1.660154342651367e-06,-3.80859375e-05,0.00021279296874999998
0.168,-0.00014648435974121094,-0.00010654296112060546,-7.509764862060547e-05,6.484374237060546e-05,-6.142577743530273e-05,5.761716842651367e-06,-3.203124618530273e-05,0.00021904296875
0.17,-0.00013056639099121093,-9.765624237060547e-05,-7.197264862060546e-05,7.382811737060546e-05,-5.498046493530273e-05,1.7675779342651367e-05,-2.3046873092651365e-05,0.0002296875
0.172,-0.00014262693786621093,-0.00010083007049560547,-7.885741424560546e-05,7.016600799560547e-05,-6.127928924560546e-05,1.6064451217651368e-05,-2.7001951217651366e-05,0.000226904296875
0.174,-0.00015541990661621094,-9.467772674560547e-05,-8.325194549560547e-05,6.928710174560546e-05,-6.6064453125e-05,6.494139194488525e-06,-3.2568355560302735e-05,0.00021577148437499998
0.176,-0.00015639646911621094,-9.458007049560547e-05,-9.204100799560546e-05,6.635741424560547e-05,-7.0751953125e-05,4.345701694488526e-06,-3.881835556030273e-05,0.00020981445312499999
0.178,-0.00015668943786621093,-0.00010629882049560546,-9.243163299560546e-05,6.196288681030274e-05,-7.319335174560546e-05,1.6357419967651366e-05,-4.184569931030273e-05,0.00021401367187499998
0.18,-0.00016347654724121094,-0.00011767577362060546,-9.189452362060546e-05,5.6640624999999996e-05,-7.607421112060547e-05,1.1914060592651366e-05,-4.47265625e-05,0.00021259765624999998
0.182,-0.00015556639099121092,-0.00010810546112060547,-8.056639862060546e-05,6.71875e-05,-6.416015625e-05,-9.765625e-07,-3.359375e-05,0.00021474609374999998
0.184,-0.00014648435974121094,-0.00010283202362060547,-7.099608612060546e-05,7.714842987060546e-05,-5.7617183685302734e-05,7.6171875e-06,-2.5390623092651367e-05,0.0002220703125
0.186,-0.00014555662536621094,-0.000103857421875,-6.459960174560546e-05,7.778319549560546e-05,-5.375976181030273e-05,1.0693359375e-05,-2.3291013717651365e-05,0.00022563476562499998
0.188,-0.00016420896911621094,-0.00011450194549560547,-8.178710174560547e-05,6.469725799560546e-05,-6.274413681030273e-05,1.5136728286743163e-06,-3.3251949310302734e-05,0.00021625976562499998
0.19,-0.00015751951599121092,-0.00011660155487060547,-9.003905487060546e-05,6.308593368530273e-05,-6.923828124999999e-05,1.9531240463256835e-06,-3.6132808685302735e-05,0.0002146484375
0.192,-0.00015639646911621094,-0.00012875975036621094,-9.604491424560547e-05,5.5517574310302735e-05,-7.6513671875e-05,-3.7597665786743162e-06,-4.125976181030273e-05,0.000209228515625
0.194,-0.00016108396911621093,-0.00013774412536621093,-0.00010102538299560546,4.7802734375e-05,-8.2666015625e-05,-8.837891578674316e-06,-4.692382431030273e-05,0.000203271484375
0.196,-0.00018413084411621092,-0.00013999021911621093,-0.00010454100799560547,4.2236328125e-05,-8.6181640625e-05,-1.1279298782348633e-05,-5.092773056030273e-05,0.00020053710937499998
0.198,-0.00018867185974121093,-0.00013896482849121093,-9.863280487060547e-05,4.27734375e-05,-8.1640625e-05,-9.960939407348632e-06,-4.6289058685302735e-05,0.00020390624999999999
0.2,-0.00018061521911621093,-0.00013344725036621094,-9.389647674560546e-05,4.9365234375e-05,-7.514648437499999e-05,-5.029298782348632e-06,-3.959960556030273e-05,0.000209716796875
0.202,-0.00016757810974121092,-0.00013134764099121093,-9.199217987060547e-05,5.8593746185302735e-05,-7.070312499999999e-05,3.4179673194885253e-06,-3.4472652435302735e-05,0.00021708984375
0.204,-0.00016108396911621093,-0.00012905271911621094,-9.682616424560546e-05,5.825194931030273e-05,-7.182617187499999e-05,2.4902334213256836e-06,-3.530273056030273e-05,0.000218408203125
0.206,-0.00016474607849121094,-0.00012705077362060545,-0.00010312499237060546,5.537109375e-05,-7.392578125e-05,1.4648423194885252e-06,-3.623046493530273e-05,0.0002193359375
0.208,-0.00017817381286621092,-0.00013051756286621094,-0.00011108397674560546,4.6923828124999996e-05,-8.422850799560547e-05,-6.5917978286743165e-06,-4.565429306030273e-05,0.000209423828125
0.21,-0.00018188475036621092,-0.00013237303161621093,-0.00011079100799560547,4.2529296875e-05,-8.940428924560547e-05,-8.154297828674315e-06,-4.995116806030273e-05,0.000207763671875
0.212,-0.00018188475036621092,-0.00013774412536621093,-0.00010913085174560546,4.4384765625e-05,-9.653319549560547e-05,-6.9824233055114745e-06,-5.815429306030273e-05,0.000203564453125
0.214,-0.00018090818786621092,-0.00013608396911621092,-0.00011059569549560546,3.8427734374999996e-05,-9.594725799560546e-05,-1.3330080032348632e-05,-6.079101181030273e-05,0.000197412109375
0.216,-0.00017548826599121092,-0.00012968748474121092,-0.00010800780487060546,4.16015625e-05,-8.925780487060547e-05,-1.0449219703674315e-05,-5.6445308685302735e-05,0.0001994140625
0.218,-0.00016479490661621093,-0.00012075194549560546,-9.604491424560547e-05,5.5712886810302734e-05,-7.817382049560547e-05,1.8066396713256835e-06,-4.6240230560302734e-05,0.00021010742187499998
0.22,-0.00017319334411621093,-0.00012319335174560547,-0.00010014647674560546,5.0341796875e-05,-8.032225799560546e-05,-4.150391578674316e-06,-4.809569931030273e-05,0.000205322265625
0.222,-0.00017641600036621093,-0.00012817381286621093,-0.00010209960174560546,4.4091796874999996e-05,-8.0126953125e-05,-9.521485328674316e-06,-4.829101181030273e-05,0.000201416015625
0.224,-0.00016821287536621094,-0.00012983396911621093,-0.00010424803924560546,4.4091796874999996e-05,-7.8369140625e-05,-9.814454078674316e-06,-4.575194931030273e-05,0.000203076171875
0.226,-0.00016503904724121093,-0.00012714842987060547,-0.00010107421112060547,4.58984375e-05,-7.880859375e-05,-7.812500953674316e-06,-4.541015243530273e-05,0.00020566406249999998
0.228,-0.00017714842224121093,-0.00013281248474121093,-0.00010507811737060546,4.2187499999999995e-05,-8.662109375e-05,-1.2207033157348632e-05,-5.3808589935302734e-05,0.00019873046875
0.23,-0.00017900389099121094,-0.00013564451599121094,-0.00010361327362060546,4.4531249999999995e-05,-8.876952362060547e-05,-1.0546876907348632e-05,-5.5468746185302734e-05,0.00019833984375
0.232,-0.00016757810974121092,-0.00012880857849121094,-9.824217987060547e-05,5.3320312499999996e-05,-8.271483612060546e-05,-2.9296889305114744e-06,-4.892577743530273e-05,0.00020546875
0.234,-0.00016787107849121092,-0.00012646483612060546,-9.433592987060547e-05,5.6933589935302735e-05,-8.105467987060547e-05,-8.789072036743164e-07,-4.7656246185302733e-05,0.00020751953125
0.236,-0.00017558592224121094,-0.00012841795349121093,-9.736327362060546e-05,5.498046493530273e-05,-8.388671112060546e-05,-3.222657203674316e-06,-5.058593368530273e-05,0.00020439453124999999
0.238,-0.00017221678161621093,-0.00012670897674560547,-9.819335174560546e-05,5.7177730560302735e-05,-8.100585174560547e-05,4.3945217132568355e-07,-4.741210556030273e-05,0.000207763671875
0.24,-0.00017304685974121092,-0.00012382811737060546,-0.00010058592987060547,5.458984375e-05,-8.261717987060547e-05,-1.4648451805114746e-06,-5.009765243530273e-05,0.000205078125
0.242,-0.00017719725036621092,-0.00011821288299560547,-9.565428924560547e-05,5.6298828125e-05,-7.963866424560546e-05,-2.5878920555114744e-06,-4.829101181030273e-05,0.000206298828125
0.244,-0.00017490232849121093,-0.00011259764862060546,-9.492186737060547e-05,5.703125e-05,-7.939452362060547e-05,1.9531065225601195e-07,-4.7949214935302735e-05,0.00020791015624999998
0.246,-0.00017211912536621094,-0.00010952147674560546,-9.594725799560546e-05,5.8740234374999995e-05,-8.012694549560546e-05,4.394512176513672e-07,-4.8095703124999995e-05,0.000208740234375
0.248,-0.00016625975036621093,-0.00010590819549560547,-9.340819549560546e-05,6.196289062499999e-05,-7.807616424560547e-05,2.685544967651367e-06,-4.5068355560302734e-05,0.000210888671875
0.25,-0.00015366209411621094,-9.916991424560546e-05,-8.969725799560546e-05,6.840819549560546e-05,-7.114257049560546e-05,1.0107419967651367e-05,-3.7060543060302735e-05,0.000217529296875
0.252,-0.00014956053161621093,-0.00010522460174560546,-9.008788299560546e-05,6.577147674560547e-05,-7.290038299560547e-05,9.814451217651367e-06,-3.911132431030273e-05,0.000216845703125
0.254,-0.00015908201599121094,-0.00011318358612060546,-9.374999237060546e-05,6.337890243530273e-05,-7.871092987060547e-05,5.078123569488525e-06,-4.726562118530273e-05,0.00021054687499999999
0.256,-0.00016210935974121093,-0.00011884764862060546,-9.228514862060546e-05,6.269530868530274e-05,-8.232421112060546e-05,2.246092319488525e-06,-5.185546493530273e-05,0.000205859375
0.258,-0.00016425779724121094,-0.00012138671112060547,-9.580077362060547e-05,6.123046493530274e-05,-7.998046112060546e-05,2.832029581069946e-06,-4.824218368530273e-05,0.0002087890625
0.26,-0.00017119139099121093,-0.00012724608612060546,-0.00010546874237060546,5.673828125e-05,-8.222655487060547e-05,-2.929706573486328e-07,-5.0195312499999994e-05,0.00020742187499999998
0.262,-0.00017041014099121094,-0.00012490233612060547,-0.00010781249237060546,5.8203125e-05,-8.193358612060546e-05,3.9062309265136715e-07,-5.107421875e-05,0.00020761718749999998
0.264,-0.00016137693786621093,-0.00011606444549560546,-9.692382049560547e-05,6.5869140625e-05,-7.553710174560546e-05,1.1279294967651366e-05,-4.2626953125e-05,0.000217138671875
0.266,-0.00014868162536621092,-0.00011157225799560547,-8.520507049560547e-05,7.036132049560546e-05,-6.918944549560547e-05,1.8017576217651366e-05,-3.6865234375e-05,0.000225439453125
0.268,-0.00015859373474121094,-0.00010712889862060547,-9.150389862060547e-05,6.396483993530273e-05,-7.714842987060546e-05,1.3574216842651366e-05,-4.4628902435302735e-05,0.00022119140624999998
0.27,-0.00016723631286621093,-0.00011059569549560546,-9.350585174560546e-05,6.2548828125e-05,-7.797850799560547e-05,8.740232467651367e-06,-4.4384761810302735e-05,0.000216064453125
0.272,-0.00016708982849121092,-9.999999237060547e-05,-9.863280487060547e-05,6.718749237060546e-05,-8.027342987060547e-05,7.519529342651367e-06,-4.492187118530273e-05,0.00021318359375
0.274,-0.00016977537536621093,-0.00011118163299560547,-0.00010913085174560546,5.8154296875e-05,-8.754882049560547e-05,1.5136700868606568e-06,-5.3369136810302734e-05,0.00020815429687499998
0.276,-0.00016904295349121093,-0.00012128905487060547,-0.00010507811737060546,5.224609375e-05,-9.296874237060547e-05,9.765605926513672e-07,-6.0351562499999994e-05,0.00020546875
0.278,-0.00017075193786621093,-0.00012397460174560547,-0.00010288085174560546,4.9365230560302735e-05,-9.467772674560547e-05,1.157226276397705e-05,-6.1279296875e-05,0.000209423828125
0.28,-0.00016865232849121094,-0.00011152342987060546,-9.570311737060546e-05,5.478515625e-05,-8.671874237060546e-05,1.7578123092651367e-05,-5.224609375e-05,0.00021748046874999998
0.282,-0.00015283201599121092,-9.999999237060547e-05,-7.558592987060547e-05,8.496092987060547e-05,-6.796874237060547e-05,1.2695310592651366e-05,-3.4765625e-05,0.00022685546874999998
0.284,-0.00015917967224121093,-0.00010498046112060546,-7.919921112060547e-05,0.00011552733612060546,-6.640624237060547e-05,1.3964841842651367e-05,-3.22265625e-05,0.00022558593749999998
0.286,-0.00017333982849121094,-0.00011699217987060546,-8.769530487060547e-05,8.896483612060546e-05,-6.845702362060547e-05,1.3574216842651366e-05,-3.2519531249999996e-05,0.00022744140625
0.288,-0.00017807615661621093,-0.00012534178924560545,-9.643553924560547e-05,4.2626953125e-05,-7.504882049560546e-05,6.298826217651367e-06,-3.9892578125e-05,0.00022143554687499998
0.29,-0.00018154295349121093,-0.00012890623474121093,-0.00010478514862060547,7.011717987060546e-05,-8.232421112060546e-05,8.691404342651367e-06,-4.5996093749999996e-05,0.00021611328125
0.292,-0.00018271482849121094,-0.00013554685974121093,-0.00011679686737060546,9.697264862060546e-05,-9.404296112060547e-05,1.4648435592651366e-05,-5.48828125e-05,0.00021210937499999998
0.294,-0.00017387693786621094,-0.00013422850036621094,-0.00011215819549560547,5.9521480560302735e-05,-8.764647674560547e-05,4.150387763977051e-06,-4.8583984374999996e-05,0.000214208984375
0.296,-0.00016420896911621094,-0.00012290038299560545,-0.00010131835174560547,3.3154296875e-05,-7.680663299560546e-05,4.248044967651367e-06,-3.9404296875e-05,0.000220263671875
0.298,-0.00016220701599121092,-0.00011357421112060546,-9.140624237060546e-05,5.273437118530273e-05,-6.943358612060547e-05,1.3574216842651366e-05,-3.330078125e-05,0.0002267578125
0.3,-0.00016606443786621093,-0.00010844725799560547,-8.774413299560546e-05,5.9912109374999995e-05,-7.094725799560547e-05,1.2939451217651367e-05,-3.6083984375e-05,0.00022514648437499998
0.302,-0.00016381834411621093,-0.00011049803924560546,-9.233397674560547e-05,5.7177734375e-05,-7.504882049560546e-05,9.814451217651367e-06,-3.9404296875e-05,0.00022260742187499999
0.304,-0.00015209959411621092,-0.00010766600799560546,-9.340819549560546e-05,5.942382431030273e-05,-7.299803924560547e-05,1.1181638717651367e-05,-3.5400390625e-05,0.000225244140625
0.306,-0.00015541990661621094,-0.00011499022674560547,-9.506835174560547e-05,5.844726181030273e-05,-7.280272674560547e-05,1.0498044967651366e-05,-3.5107421874999996e-05,0.000225439453125
0.308,-0.00017348631286621092,-0.00012065428924560547,-0.00010659178924560546,5.5322265625e-05,-8.266600799560546e-05,6.982419967651367e-06,-4.3896484375e-05,0.000218310546875
0.31,-0.00017607420349121094,-0.00011923827362060546,-0.00011015624237060546,5.458983993530273e-05,-8.623046112060546e-05,6.640622138977051e-06,-4.6679687499999995e-05,0.00021708984375
0.312,-0.00016489256286621092,-0.00011215819549560547,-0.00010473632049560546,5.893554306030273e-05,-8.217772674560546e-05,1.1474607467651367e-05,-4.0966796875e-05,0.00022192382812499998
0.314,-0.00017358396911621094,-0.00010893553924560546,-0.00010278319549560546,5.9521484375e-05,-8.022460174560546e-05,1.0693357467651367e-05,-3.9208980560302735e-05,0.000222021484375
0.316,-0.00018847654724121093,-0.00011572264862060547,-0.00010742186737060546,5.48828125e-05,-8.603514862060546e-05,7.031248092651367e-06,-4.560546493530273e-05,0.00021699218749999998
0.318,-0.00018852537536621092,-0.00012397460174560547,-0.00010893553924560546,5.4150390625e-05,-8.881835174560546e-05,5.908201217651367e-06,-4.829101181030273e-05,0.000216650390625
0.32,-0.00018540037536621094,-0.00012543944549560547,-0.00011528319549560546,5.1708984375e-05,-9.106444549560546e-05,2.783201217651367e-06,-5.180663681030273e-05,0.00021303710937499998
0.322,-0.00017890623474121092,-0.00012724608612060546,-0.00011689452362060546,5.0390625e-05,-9.296874237060547e-05,-9.765803813934325e-08,-5.468749618530273e-05,0.0002091796875
0.324,-0.00017587889099121093,-0.00013369139099121094,-0.00011103514862060547,5.15625e-05,-9.365233612060546e-05,7.812480926513672e-07,-5.4980468749999996e-05,0.00020927734375
0.326,-0.00017470701599121093,-0.00012978514099121094,-0.00010878905487060546,5.468749618530273e-05,-9.169921112060546e-05,2.5390596389770507e-06,-5.29296875e-05,0.00020957031249999999
0.328,-0.00017343748474121093,-0.00011953124237060547,-0.00010673827362060547,5.7812499999999996e-05,-8.964842987060547e-05,4.882810592651367e-06,-5.17578125e-05,0.0002109375
0.33,-0.00017197264099121093,-0.00011562499237060547,-0.00010302733612060546,6.142578125e-05,-8.554686737060546e-05,9.570310592651367e-06,-4.7265625e-05,0.0002146484375
0.332,-0.00017846678161621092,-0.00012182616424560546,-0.00010512694549560547,5.8154296875e-05,-8.754882049560547e-05,7.861326217651367e-06,-4.9267578124999995e-05,0.00021157226562499998
0.334,-0.00019370115661621092,-0.00012846678161621092,-0.00011303710174560547,5.2197265625e-05,-9.409178924560547e-05,1.4648270606994628e-07,-5.6884761810302734e-05,0.00020415039062499999
0.336,-0.00020708006286621094,-0.00013872068786621093,-0.00012182616424560546,4.2822265625e-05,-0.00010102538299560546,-9.619142532348632e-06,-6.362304306030273e-05,0.00019360351562499998
0.338,-0.00020434568786621094,-0.00013940428161621094,-0.00012290038299560545,4.1357421875e-05,-0.00010014647674560546,-1.0498048782348632e-05,-6.264648056030273e-05,0.000193310546875
0.34,-0.00019301756286621094,-0.00014028318786621092,-0.00012006835174560546,4.1357421875e-05,-9.877928924560546e-05,-1.0595705032348632e-05,-6.2548828125e-05,0.000194189453125
0.342,-0.00018749998474121093,-0.00014833982849121093,-0.00012275389862060547,3.96484375e-05,-0.00010185546112060546,-1.1914064407348632e-05,-6.669921875e-05,0.00019169921875
0.344,-0.00017753904724121094,-0.00014433592224121094,-0.00011845702362060547,4.658203125e-05,-9.326171112060546e-05,-1.1718769073486328e-06,-5.703125e-05,0.00020195312499999998
0.346,-0.00016274412536621094,-0.00012446288299560547,-0.00010844725799560547,5.7666015625e-05,-7.924803924560546e-05,4.248044967651367e-06,-4.3017578125e-05,0.00020961914062499998
0.348,-0.00016577146911621093,-0.00012241210174560545,-0.00011176757049560546,5.5419921874999995e-05,-8.618163299560547e-05,1.3183575868606567e-06,-5.0048824310302734e-05,0.000206298828125
0.35,-0.00017128904724121092,-0.00012558592987060545,-0.00011035155487060546,5.078125e-05,-9.091796112060546e-05,-1.2695329189300537e-06,-5.3124996185302734e-05,0.00020478515625
0.352,-0.00018017576599121092,-0.00013564451599121094,-0.00011357421112060546,4.6191406249999995e-05,-9.277342987060546e-05,-5.5664081573486324e-06,-5.439452743530273e-05,0.00020087890625
0.354,-0.00019438475036621093,-0.00014360350036621094,-0.00012016600799560547,4.1650390625e-05,-9.995116424560546e-05,-1.2744142532348632e-05,-6.323241806030273e-05,0.000192919921875
0.356,-0.00020522459411621093,-0.00015112303161621092,-0.00012563475799560547,3.7451171874999995e-05,-0.00010483397674560546,-1.821289253234863e-05,-6.9091796875e-05,0.000186767578125
0.358,-0.00019194334411621092,-0.00014311521911621094,-0.00012055663299560546,3.852538681030273e-05,-9.809569549560546e-05,-1.4892580032348633e-05,-6.1767578125e-05,0.000192041015625
0.36,-0.00016879881286621093,-0.00013647459411621093,-0.00010795897674560547,4.7900390624999996e-05,-8.813475799560547e-05,-6.005861282348632e-06,-5.2099609374999995e-05,0.000201416015625
0.362,-0.00016328123474121094,-0.00013945310974121093,-0.00010224608612060546,5.361328125e-05,-8.437499237060547e-05,-3.4179704189300534e-06,-4.951171493530273e-05,0.0002033203125
0.364,-0.00016308592224121093,-0.00012988279724121093,-0.00010078124237060546,5.4687499999999994e-05,-8.330077362060546e-05,-2.4414079189300538e-06,-4.9121089935302735e-05,0.00020371093749999998
0.366,-0.00016943357849121094,-0.00011943358612060547,-0.00010624999237060547,5.5175781249999995e-05,-8.476561737060546e-05,-1.953126788139343e-06,-5.0976558685302734e-05,0.00020283203125
0.368,-0.00018085935974121093,-0.00012275389862060547,-0.00011142577362060547,4.814453125e-05,-9.208983612060547e-05,-8.398439407348633e-06,-5.771483993530273e-05,0.00019638671875
0.37,-0.00018237303161621092,-0.00012631835174560545,-0.00011342772674560546,4.7509765625e-05,-9.790038299560547e-05,-6.982423782348632e-06,-6.127929306030273e-05,0.000195458984375
0.372,-0.00017836912536621093,-0.00012622069549560546,-0.00011235350799560546,4.2724609375e-05,-9.604491424560547e-05,-1.0693361282348633e-05,-5.8251953124999995e-05,0.00019702148437499999
0.374,-0.00018310545349121092,-0.00012949217224121094,-0.00011435546112060547,3.6523437499999996e-05,-9.785155487060546e-05,-1.0058595657348633e-05,-6.25e-05,0.00019423828125
0.376,-0.00018149412536621094,-0.00013002928161621094,-0.00011069335174560547,4.2236324310302734e-05,-9.536132049560546e-05,6.689450740814208e-06,-6.0595703124999994e-05,0.000199853515625
0.378,-0.00016367185974121092,-0.00011689452362060546,-0.00010068358612060546,6.308593368530273e-05,-7.919921112060547e-05,1.1035154342651366e-05,-4.47265625e-05,0.0002146484375
0.38,-0.00015957029724121094,-0.00010839842987060546,-9.736327362060546e-05,7.12890625e-05,-7.041015625e-05,5.761716842651367e-06,-3.525390625e-05,0.0002185546875
0.382,-0.00016718748474121094,-0.00011044921112060547,-9.785155487060546e-05,6.455078124999999e-05,-7.314453125e-05,1.7578101158142088e-06,-3.8183593749999996e-05,0.0002154296875
0.384,-0.00016406248474121093,-0.00011523436737060547,-9.335936737060547e-05,6.318359375e-05,-7.304687499999999e-05,3.808591842651367e-06,-3.9355468749999996e-05,0.00021552734374999998
0.386,-0.00016723631286621093,-0.00012192382049560546,-8.959960174560546e-05,6.0400390624999995e-05,-7.612303924560547e-05,1.3183574676513672e-06,-4.3408203124999997e-05,0.00021157226562499998
0.388,-0.00017192381286621093,-0.00012729491424560545,-0.00010014647674560546,5.2490234375e-05,-8.647460174560546e-05,-8.154298782348633e-06,-5.4248046874999995e-05,0.000200830078125
0.39,-0.00017172850036621093,-0.00012670897674560547,-0.00010620116424560546,5.190429306030273e-05,-9.116210174560546e-05,-9.42383098602295e-06,-5.7568359374999996e-05,0.000198193359375
0.392,-0.00015834959411621094,-0.00012084960174560546,-9.702147674560547e-05,5.9521480560302735e-05,-8.344725799560546e-05,-3.41799259185791e-07,-4.8974609375e-05,0.00020688476562499998
0.394,-0.00015063475036621092,-0.00011586913299560547,-9.174803924560547e-05,5.9423828124999995e-05,-8.305663299560546e-05,-3.4179872274398803e-07,-4.907226181030273e-05,0.00020620117187499998
0.396,-0.00015766600036621093,-0.00011762694549560546,-0.00010024413299560547,5.0830078125e-05,-9.077147674560547e-05,-7.958986282348632e-06,-5.727538681030273e-05,0.000198974609375
0.398,-0.00016015623474121093,-0.00011474608612060547,-0.00010595702362060546,5.1953125e-05,-9.394530487060547e-05,-1.0253908157348632e-05,-5.966796493530273e-05,0.00019677734374999999
0.4,-0.00016704100036621093,-0.00011079100799560547,-0.00011137694549560546,5.4833984375e-05,-9.653319549560547e-05,-1.1962892532348632e-05,-6.264648056030273e-05,0.000193701171875
0.402,-0.00017602537536621094,-0.00012397460174560547,-0.00011499022674560547,4.7412109374999996e-05,-9.799803924560547e-05,-1.6845705032348633e-05,-6.4501953125e-05,0.000189111328125
0.404,-0.00017807615661621093,-0.00013813475036621094,-0.00011430663299560546,3.8818359375e-05,-9.565428924560547e-05,-1.606445503234863e-05,-6.2646484375e-05,0.00019165039062499998
0.406,-0.00017524412536621092,-0.00012954100036621094,-0.00010971678924560547,4.4873046875e-05,-9.194335174560546e-05,-1.1767580032348633e-05,-5.8154296875e-05,0.000197607421875
0.408,-0.00016411131286621093,-0.00011899413299560546,-0.00010229491424560547,5.395507431030273e-05,-8.754882049560547e-05,-4.931643009185791e-06,-5.4541015625e-05,0.000202392578125
0.41,-0.00015668943786621093,-0.00010766600799560546,-9.526366424560546e-05,6.245117187499999e-05,-8.256835174560546e-05,2.099607467651367e-06,-4.9169921875e-05,0.000207275390625
0.412,-0.00015971678161621092,-0.00010463866424560547,-9.448241424560546e-05,6.3525390625e-05,-8.217772674560546e-05,5.224607467651367e-06,-4.7705078125e-05,0.00020961914062499998
0.414,-0.00016640623474121092,-0.00011396483612060546,-9.882811737060546e-05,5.9179687499999994e-05,-8.710936737060546e-05,2.636716842651367e-06,-5.3320312499999996e-05,0.0002068359375
0.416,-0.00015678709411621092,-0.00011743163299560546,-9.614257049560547e-05,6.264648056030273e-05,-8.491210174560546e-05,1.1230444908142088e-06,-5.2587890624999995e-05,0.000204052734375
0.418,-0.00014575193786621094,-0.00010815428924560546,-8.891600799560547e-05,6.7431640625e-05,-7.846678924560547e-05,5.712888717651367e-06,-4.5458984375e-05,0.00020932617187499999
0.42,-0.00014521482849121092,-0.00010039061737060546,-8.691405487060547e-05,6.9140625e-05,-7.626952362060546e-05,8.984373092651367e-06,-4.306640625e-05,0.00021337890625
0.422,-0.00014907226562499998,-0.00010034178924560547,-8.745116424560547e-05,6.186523056030273e-05,-7.768553924560547e-05,3.466793060302734e-06,-4.5654296875e-05,0.000210498046875
0.424,-0.00013691404724121094,-8.212889862060547e-05,-7.861327362060546e-05,7.12890625e-05,-6.621092987060546e-05,1.2597654342651367e-05,-3.30078125e-05,0.0002224609375
0.426,-0.00013198240661621094,-8.627928924560546e-05,-7.416991424560546e-05,8.168944549560546e-05,-5.913085174560547e-05,2.1923824310302735e-05,-2.4365234375e-05,0.00023198242187499998
0.428,-0.00013593748474121094,-9.199217987060547e-05,-7.744139862060547e-05,7.607421112060547e-05,-6.298827362060546e-05,1.7089839935302732e-05,-2.880859375e-05,0.00022578125
0.43,-0.00013984373474121094,-9.707030487060546e-05,-8.193358612060546e-05,6.953125e-05,-6.689452362060547e-05,1.1425779342651367e-05,-3.33984375e-05,0.00022060546875
0.432,-0.00013037107849121093,-8.955077362060546e-05,-8.095702362060546e-05,7.28515625e-05,-6.914061737060546e-05,1.4550779342651367e-05,-3.427734375e-05,0.00022177734375
0.434,-0.00012797850799560546,-8.139647674560547e-05,-8.168944549560546e-05,7.280272674560547e-05,-7.299803924560547e-05,1.1474607467651367e-05,-3.9013671875e-05,0.00021723632812499998
0.436,-0.00013012693786621093,-7.709960174560547e-05,-8.959960174560546e-05,6.8896484375e-05,-7.553710174560546e-05,8.056638717651367e-06,-4.3017578125e-05,0.00021284179687499998
0.438,-0.00012270507049560547,-7.153319549560547e-05,-9.223632049560547e-05,7.7294921875e-05,-7.475585174560547e-05,1.6259763717651367e-05,-4.2041015625e-05,0.00021674804687499998
0.44,-0.00011733397674560547,-6.372069549560546e-05,-8.872069549560546e-05,0.00010483397674560546,-7.700194549560546e-05,3.735351181030273e-05,-4.5263671874999995e-05,0.00021674804687499998
0.442,-0.00012871092224121092,-8.466796112060546e-05,-9.736327362060546e-05,0.00012294921112060547,-8.906249237060546e-05,5.2148437499999996e-05,-5.615233612060546e-05,0.000212890625
0.444,-9.931639862060546e-05,-5.537109375e-05,-6.855467987060546e-05,8.779296112060547e-05,-5.937499237060547e-05,2.2460935592651365e-05,-2.6562498092651367e-05,0.00023076171874999998
0.446,-8.613280487060546e-05,-2.4511716842651366e-05,-5.29296875e-05,9.824217987060547e-05,-4.638671875e-05,1.005859375e-05,-1.4550779342651367e-05,0.00023466796874999999
0.448,-9.448241424560546e-05,-2.7001951217651366e-05,-6.284178924560547e-05,0.00011508788299560546,-5.8349609375e-05,1.2939451217651367e-05,-2.6806638717651367e-05,0.000226708984375
0.45,-9.052733612060547e-05,-2.2265623092651366e-05,-6.464842987060547e-05,6.298828125e-05,-6.181640625e-05,1.1621091842651366e-05,-3.085937309265137e-05,0.00022255859375
0.452,-8.569335174560547e-05,-3.1494140625e-05,-6.606444549560546e-05,5.659179306030273e-05,-6.333007049560547e-05,1.518554401397705e-05,-3.0810546875e-05,0.000223583984375
0.454,-8.305663299560546e-05,-2.5927732467651366e-05,-6.997069549560547e-05,6.899414062499999e-05,-6.674803924560547e-05,1.4892576217651367e-05,-3.5498046875e-05,0.00022016601562499998
0.456,-7.299803924560547e-05,-1.1181639671325683e-05,-6.284178924560547e-05,7.915038299560547e-05,-6.391600799560547e-05,2.2900386810302732e-05,-3.1787109374999996e-05,0.00022680664062499998
0.458,-6.323241424560546e-05,-4.150388717651367e-06,-5.3369132995605465e-05,8.715819549560547e-05,-5.590819549560546e-05,3.061523246765137e-05,-2.3486326217651367e-05,0.000234814453125
0.46,-6.137694549560546e-05,-6.347646713256835e-07,-5.3564445495605464e-05,8.637694549560546e-05,-5.541991424560547e-05,2.6611326217651365e-05,-2.4853513717651366e-05,0.00023247070312499998
0.462,-5.747069549560547e-05,6.6894526481628415e-06,-5.776366424560547e-05,8.305663299560546e-05,-5.747069549560547e-05,2.0947263717651366e-05,-2.6904294967651367e-05,0.00022905273437499998
0.464,-4.5458984375e-05,1.4794921874999999e-05,-5.6005851745605466e-05,8.491210174560546e-05,-5.747069549560547e-05,2.1630857467651365e-05,-2.7099607467651366e-05,0.000229443359375
0.466,-3.5400390625e-05,2.5732419967651367e-05,-5.2587890624999995e-05,9.057616424560546e-05,-5.747069549560547e-05,2.2998044967651367e-05,-2.7587888717651366e-05,0.000229443359375
0.468,-3.090820121765136e-05,3.5107421874999996e-05,-6.0107421875e-05,8.979491424560546e-05,-6.459960174560546e-05,1.8603513717651366e-05,-3.4033203125e-05,0.00022290039062499998
0.47,-2.7099609375e-05,3.901366806030273e-05,-6.459960174560546e-05,9.018553924560546e-05,-6.958007049560547e-05,1.7724605560302733e-05,-3.6962890625e-05,0.000219287109375
0.472,-1.8212888717651365e-05,5.2392574310302734e-05,-5.9033195495605465e-05,9.594725799560546e-05,-6.440428924560547e-05,2.4365232467651365e-05,-3.0712888717651364e-05,0.000224755859375
0.474,-1.4794919967651367e-05,6.4501953125e-05,-5.893553924560547e-05,0.00010014647674560546,-6.518553924560546e-05,2.7490232467651367e-05,-3.2861328125e-05,0.000225927734375
0.476,-1.6113279342651366e-05,6.162109375e-05,-6.308592987060547e-05,9.531249237060547e-05,-7.041014862060547e-05,2.3046873092651365e-05,-3.886718368530273e-05,0.0002228515625
0.478,-1.5722655296325682e-05,6.2109375e-05,-6.015624618530273e-05,8.623046112060546e-05,-7.109374237060546e-05,1.5722654342651365e-05,-4.0332027435302734e-05,0.00022089843749999998
0.48,-1.8945310592651366e-05,5.361328125e-05,-6.220702743530274e-05,8.300780487060547e-05,-7.275389862060547e-05,1.2499998092651366e-05,-4.2285152435302735e-05,0.00021884765625
0.482,-1.15234375e-05,5.60546875e-05,-6.289062118530273e-05,8.183592987060546e-05,-7.509764862060547e-05,7.714841842651368e-06,-4.716796493530273e-05,0.00021416015625
0.484,-1.611328125e-06,6.811522674560547e-05,-6.7724609375e-05,8.540038299560546e-05,-7.817382049560547e-05,1.2548826217651367e-05,-5.1513671875e-05,0.000216552734375
0.486,-4.541016101837158e-06,6.8408203125e-05,-6.616210937499999e-05,8.842772674560547e-05,-7.807616424560547e-05,1.6259763717651367e-05,-5.0732421874999996e-05,0.000219873046875
0.488,7.812501192092895e-07,8.339842987060546e-05,-5.869140243530273e-05,9.609374237060546e-05,-7.216796112060547e-05,1.4843748092651367e-05,-4.5312496185302734e-05,0.0002173828125
0.49,2.5781248092651365e-05,0.00010292967987060547,-5.185546493530273e-05,0.00010029296112060546,-6.865233612060546e-05,1.8652341842651368e-05,-4.169921493530273e-05,0.0002212890625
0.492,3.6181640625e-05,0.00010795896911621093,-5.083007431030273e-05,0.00010190428924560546,-6.987303924560546e-05,2.1826169967651367e-05,-4.135741806030273e-05,0.00022387695312499998
0.494,2.353515625e-05,0.00010898436737060547,-5.605468368530273e-05,9.785155487060546e-05,-7.509764862060547e-05,1.748046875e-05,-4.6777339935302735e-05,0.00021884765625
0.496,2.021484375e-05,9.990233612060546e-05,-5.7128902435302734e-05,9.013671112060547e-05,-7.675780487060546e-05,1.1523436546325682e-05,-4.8437496185302736e-05,0.00021513671875
0.498,2.0947265625e-05,9.916991424560546e-05,-5.9521480560302735e-05,9.145507049560546e-05,-7.749022674560546e-05,1.3330077171325683e-05,-4.848632431030273e-05,0.00021528320312499998
0.5,1.6601560592651366e-05,0.00010449217987060546,-5.839843368530273e-05,9.394530487060547e-05,-7.568358612060546e-05,1.2597654342651367e-05,-4.785155868530273e-05,0.000213671875
0.502,1.9921873092651367e-05,0.00011435546112060547,-5.8007812499999995e-05,9.755858612060546e-05,-7.666014862060546e-05,1.1621091842651366e-05,-5.0976562499999996e-05,0.0002109375
0.504,4.23828125e-05,0.00012685546112060548,-4.638671493530273e-05,0.00010449217987060546,-6.591796112060547e-05,2.3144529342651367e-05,-3.9453121185302736e-05,0.000223046875
0.506,5.0634765625e-05,0.000131396484375,-4.1748043060302734e-05,0.00010698241424560547,-5.9716789245605464e-05,2.9541013717651364e-05,-3.1689451217651365e-05,0.00022983398437499998
0.508,4.5556640625e-05,0.00012045896911621094,-4.868163681030273e-05,0.00010424803924560546,-6.811522674560547e-05,2.3779294967651365e-05,-4.047851181030273e-05,0.000221533203125
0.51,4.2871093749999995e-05,0.00012714842987060547,-5.3124996185302734e-05,0.00010957030487060547,-7.539061737060547e-05,1.9238279342651367e-05,-4.785155868530273e-05,0.00021425781249999998
0.512,3.8037109375e-05,0.00012602538299560546,-5.6689449310302735e-05,0.000152880859375,-8.051757049560547e-05,2.5146482467651367e-05,-5.2880855560302734e-05,0.000212255859375
0.514,2.7001951217651366e-05,9.565428924560547e-05,-6.284179306030273e-05,0.000158349609375,-8.559569549560547e-05,2.3193357467651365e-05,-5.893554306030273e-05,0.000206494140625
0.516,3.30078125e-05,0.00011064452362060546,-5.800780868530273e-05,8.779296112060547e-05,-8.242186737060546e-05,1.6503904342651367e-05,-5.439452743530273e-05,0.00020869140625
0.518,4.5703125e-05,0.00012734374237060548,-4.74609375e-05,5.1171874999999995e-05,-7.451171112060547e-05,1.5722654342651365e-05,-4.5019531249999995e-05,0.00021494140625
0.52,4.2675781249999996e-05,0.00013212890625,-4.677734375e-05,7.724608612060546e-05,-7.294921112060546e-05,3.59375e-05,-4.375e-05,0.00022158203125
0.522,4.7167968749999996e-05,0.0001509765625,-3.7792964935302736e-05,0.00010419921112060546,-6.201171112060546e-05,3.4863281249999996e-05,-3.5644527435302735e-05,0.00022744140625
0.524,6.0351562499999994e-05,0.00014619140625,-2.9394529342651367e-05,0.00011708983612060547,-5.136717987060547e-05,2.9003904342651366e-05,-2.3925779342651366e-05,0.00023046875
0.526,6.767577362060546e-05,0.0001396484375,-2.3925779342651366e-05,0.00011230467987060547,-5.019530487060547e-05,2.6855466842651365e-05,-2.2558591842651368e-05,0.00023027343749999998
0.528,6.3037109375e-05,0.000139599609375,-3.2080078125e-05,0.00010473632049560546,-5.8154289245605466e-05,2.2705076217651365e-05,-3.0419919967651366e-05,0.000222705078125
0.53,6.474609375e-05,0.00013818359375,-3.427733993530273e-05,0.00010224608612060546,-6.308592987060547e-05,1.9726560592651368e-05,-3.427733993530273e-05,0.00021630859375
0.532,6.298827743530273e-05,0.0001400390625,-3.2031249999999996e-05,9.667967987060547e-05,-6.396483612060546e-05,2.0312498092651368e-05,-3.408203125e-05,0.00021621093749999999
0.534,5.7666015625e-05,0.000139306640625,-3.8916015625e-05,9.809569549560546e-05,-6.948241424560547e-05,1.8310544967651368e-05,-3.9990234375e-05,0.00021333007812499998
0.536,6.884764862060547e-05,0.00014853515624999999,-3.681640625e-05,0.00010458983612060546,-6.660155487060547e-05,2.5781248092651365e-05,-3.75e-05,0.00021972656249999998
0.538,8.066405487060547e-05,0.00016171875,-2.9101560592651365e-05,0.00011386717987060547,-5.7910148620605466e-05,3.564453125e-05,-2.9199216842651365e-05,0.00023056640624999998
0.54,8.120116424560546e-05,0.000172607421875,-2.5732419967651367e-05,0.00011137694549560546,-5.629882049560547e-05,3.2666015625e-05,-2.8564451217651367e-05,0.000230712890625
0.542,7.944335174560547e-05,0.000161181640625,-2.7783201217651365e-05,0.00010952147674560546,-5.9326164245605466e-05,2.8466794967651367e-05,-3.1494138717651366e-05,0.000227490234375
0.544,8.100585174560547e-05,0.00014536132812499998,-2.7099607467651366e-05,0.00011147460174560546,-6.079100799560547e-05,3.090820121765136e-05,-3.159179496765137e-05,0.00022905273437499998
0.546,7.499999237060547e-05,0.00014482421875,-2.8808591842651367e-05,0.00011035155487060546,-6.005858612060547e-05,3.085937309265137e-05,-2.9980466842651367e-05,0.00023007812499999998
0.548,6.7822265625e-05,0.000152197265625,-4.1259765624999996e-05,0.00010727538299560546,-6.469725799560546e-05,2.8955076217651365e-05,-3.4716796875e-05,0.00022729492187499999
0.55,7.12890625e-05,0.00015693359374999998,-4.306640625e-05,0.00010732421112060546,-6.699217987060547e-05,3.007812118530273e-05,-3.59375e-05,0.000226171875
0.552,7.978514862060547e-05,0.000165234375,-3.427734375e-05,0.00011806639862060547,-5.869139862060547e-05,4.04296875e-05,-2.6171873092651366e-05,0.00023574218749999998
0.554,8.666991424560547e-05,0.00016850585937499998,-2.7685544967651365e-05,0.00012065428924560547,-5.590819549560546e-05,4.1455078124999995e-05,-2.4072263717651367e-05,0.00023745117187499998
0.556,8.647460174560546e-05,0.00016850585937499998,-2.7392576217651367e-05,0.00011596678924560547,-5.727538299560547e-05,3.6767578124999996e-05,-2.6611326217651365e-05,0.000232568359375
0.558,9.223632049560547e-05,0.00017270507812499998,-1.8408201217651367e-05,0.00011684569549560547,-5.092772674560547e-05,3.8330078125e-05,-2.0751951217651367e-05,0.000235107421875
0.56,9.365233612060546e-05,0.00017255859375,-1.4550779342651367e-05,0.00011796874237060547,-4.5996086120605464e-05,3.9355468749999996e-05,-1.5722654342651365e-05,0.00023720703124999998
0.562,8.417967987060546e-05,0.00016650390624999999,-2.0117185592651365e-05,0.00011191405487060547,-4.6093742370605467e-05,3.349609375e-05,-1.6113279342651366e-05,0.00023349609374999998
0.564,9.077147674560547e-05,0.000173974609375,-2.0166013717651367e-05,0.00011811522674560546,-4.545897674560547e-05,3.7451171874999995e-05,-1.4990232467651366e-05,0.00023569335937499998
0.566,9.829100799560546e-05,0.00017416992187499998,-1.4306640625e-05,0.00012329100799560546,-4.184569549560547e-05,4.448241806030273e-05,-9.814453125e-06,0.00024379882812499998
0.568,0.00010297850799560546,0.000180126953125,-1.0107419967651367e-05,0.00012836914062499998,-3.8916007995605464e-05,4.9072265624999996e-05,-6.884763717651367e-06,0.000248095703125
0.57,0.00010859374237060547,0.00018720703124999998,-7.617188453674316e-06,0.00013369140625,-3.720702743530273e-05,5.341796493530273e-05,-3.80859375e-06,0.00025087890624999996
0.572,0.00010346678924560546,0.000185400390625,-1.0107422828674316e-05,0.000132861328125,-3.862304306030273e-05,5.395507431030273e-05,-5.712889671325684e-06,0.000250439453125
0.574,9.257811737060547e-05,0.00017470703125,-1.3964844703674316e-05,0.00012744139862060547,-4.326171493530273e-05,4.9804683685302734e-05,-1.2890625953674316e-05,0.0002443359375
0.576,0.00010175780487060546,0.00017441406249999998,-1.0449217796325684e-05,0.00012626952362060546,-4.443358993530273e-05,4.6972652435302734e-05,-1.689453125e-05,0.00023994140625
0.578,0.00011225585174560546,0.00018032226562499998,-3.466794967651367e-06,0.000132470703125,-3.9697257995605466e-05,5.0927734374999995e-05,-1.3720701217651367e-05,0.000243896484375
0.58,0.00011508788299560546,0.000181103515625,-2.44140625e-07,0.00013549804687499998,-3.6572261810302734e-05,5.1708980560302734e-05,-1.1767578125e-05,0.000245556640625
0.582,0.00010986327362060546,0.00017539062499999998,-3.02734375e-06,0.00013378906249999998,-3.7011711120605464e-05,5.234374618530273e-05,-1.142578125e-05,0.00024697265625
0.584,0.00011899413299560546,0.000187255859375,7.958984375e-06,0.000142236328125,-2.5439449310302734e-05,6.342773056030274e-05,1.7089843749999998e-06,0.000258837890625
0.586,0.00012753905487060545,0.00019931640625,1.4648436546325684e-05,0.00014794921875,-1.5234375e-05,6.806639862060546e-05,1.2011717796325683e-05,0.0002662109375
0.588,0.00012504882049560546,0.000197412109375,1.0400389671325682e-05,0.000145166015625,-1.8896484375e-05,6.499022674560547e-05,9.716795921325683e-06,0.000261376953125
0.59,0.00012260741424560546,0.000196728515625,8.740232467651367e-06,0.00014262695312499999,-2.3291011810302734e-05,6.147460556030274e-05,5.712890625e-06,0.00025522460937499997
0.592,0.00012709960174560548,0.00020200195312499998,1.0107419967651367e-05,0.000145751953125,-2.5048824310302733e-05,6.215819931030273e-05,3.466794967651367e-06,0.000254638671875
0.594,0.0001296875,0.00020810546874999998,1.0742185592651366e-05,0.00014374998474121092,-3.0273433685302734e-05,5.8593746185302735e-05,-1.3671894073486329e-06,0.0002515625
0.596,0.00012470702362060547,0.00018896484374999998,1.1132811546325683e-05,0.000137109375,-3.193358993530273e-05,5.7617183685302734e-05,-2.44140625e-06,0.0002505859375
0.598,0.00012744139862060547,0.0001798828125,1.9921874999999998e-05,0.0001376953125,-2.6855464935302734e-05,6.0937496185302734e-05,5.859375e-07,0.00025224609375
0.6,0.000133642578125,0.00019262695312499998,2.0947263717651366e-05,0.00014584960937499998,-1.7236324310302733e-05,6.9580078125e-05,1.0205076217651366e-05,0.000263818359375
0.602,0.000143701171875,0.000208935546875,2.6123044967651365e-05,0.000156494140625,-1.0107421875e-05,7.075194549560546e-05,1.7236326217651368e-05,0.000267431640625
0.604,0.000156103515625,0.000213623046875,3.0029294967651365e-05,0.00015991210937499998,-9.326171875e-06,7.065428924560547e-05,1.8017576217651366e-05,0.000266357421875
0.606,0.000158251953125,0.000218603515625,2.8564451217651367e-05,0.000155517578125,-1.2158203125e-05,6.948241424560547e-05,1.557617092132568e-05,0.000265283203125
0.608,0.000146533203125,0.000212158203125,1.9384763717651365e-05,0.000145654296875,-1.7822265625e-05,6.235350799560546e-05,9.228514671325683e-06,0.000258056640625
0.61,0.00014853515624999999,0.00021015625,2.0605466842651366e-05,0.0001435546875,-1.9335937499999998e-05,6.308592987060547e-05,6.445310592651367e-06,0.0002556640625
0.612,0.0001462890625,0.00020937499999999998,1.6308591842651365e-05,0.00014658203124999998,-2.2949214935302734e-05,6.826171874999999e-05,4.296873092651367e-06,0.0002548828125
0.614,0.000133447265625,0.000198388671875,6.591796875e-06,0.000135693359375,-2.9638668060302732e-05,7.2607421875e-05,-3.8574218749999995e-06,0.000251708984375
0.616,0.00014780273437499998,0.00021645507812499999,1.8603513717651366e-05,0.000149462890625,-1.9482418060302733e-05,7.0263671875e-05,5.419921874999999e-06,0.000257177734375
0.618,0.00016865234375,0.00022626953125,4.052733993530273e-05,0.00016181640625,-2.929706573486328e-07,6.982421112060547e-05,2.4902341842651367e-05,0.00026826171875
0.62,0.00015864257812499998,0.000215673828125,4.0087886810302734e-05,0.000158935546875,7.324199676513671e-07,6.821288299560547e-05,2.6220701217651368e-05,0.00026704101562499997
0.622,0.000155078125,0.00021308593749999998,3.066406059265136e-05,0.000172265625,-7.6171875e-06,6.464842987060547e-05,1.5820311546325682e-05,0.0002595703125
0.624,0.00015576171875,0.00020273437499999998,2.0410154342651367e-05,0.00019677734374999999,-1.8261714935302735e-05,7.265625e-05,7.324216842651367e-06,0.0002560546875
0.626,0.00016728515624999998,0.00020703125,2.7246091842651366e-05,0.00017812499999999998,-1.23046875e-05,6.777342987060546e-05,1.3281249046325684e-05,0.0002619140625
0.628,0.00016298828125,0.00021308593749999998,2.8417966842651366e-05,0.00014609374999999998,-9.5703125e-06,5.7617179870605465e-05,1.6308591842651365e-05,0.0002625
0.63,0.00015810545349121094,0.000214453125,1.7089843749999998e-05,0.00016552734374999998,-2.2167964935302732e-05,6.6796875e-05,5.859375e-06,0.00025673828124999997
0.632,0.000167578125,0.000217578125,1.6113279342651366e-05,0.00012490233612060547,-2.3828121185302732e-05,7.75390625e-05,5.9570312499999995e-06,0.00026025390625
0.634,0.000174560546875,0.000217919921875,2.2119138717651365e-05,0.00012416991424560547,-1.4794921874999999e-05,6.176757049560546e-05,1.2255857467651367e-05,0.00026020507812499997
0.636,0.000171875,0.0002232421875,1.923828125e-05,0.000134375,-1.6015623092651367e-05,5.009765625e-05,7.519531249999999e-06,0.00025380859374999997
0.638,0.000157373046875,0.00020717773437499998,1.4697265625e-05,0.000133154296875,-1.7724607467651365e-05,4.7802734375e-05,3.1738300323486325e-06,0.00024692382812499996
0.64,0.00014257810974121094,0.0001912109375,7.421875e-06,0.00012617186737060547,-2.3339841842651366e-05,4.521483993530273e-05,-1.660154342651367e-06,0.00024228515625
0.642,0.0001474609375,0.00020126953124999998,1.1718750953674316e-05,0.000134375,-3.14453067779541e-05,4.794921875e-05,-4.589841842651367e-06,0.0002431640625
0.644,0.000166943359375,0.000204345703125,1.7724607467651365e-05,0.000134814453125,-2.9638668060302732e-05,4.975585556030273e-05,-1.416015625e-06,0.00024448242187499996
0.646,0.00017216796874999998,0.00021054687499999999,1.58203125e-05,0.000133203125,-2.646484375e-05,4.833983993530273e-05,-9.765624999999999e-08,0.00024208984374999998
0.648,0.000169189453125,0.00021723632812499998,1.5966794967651365e-05,0.00014096678161621093,-2.6806636810302733e-05,4.9365230560302735e-05,-1.904296875e-06,0.00024106445312499999
0.65,0.000165625,0.000213671875,1.7285154342651366e-05,0.00017080078125,-2.7441402435302734e-05,5.869140243530273e-05,3.9062309265136715e-07,0.0002439453125
0.652,0.00016044921875,0.00020625,1.4453124999999999e-05,0.0001818359375,-3.554686737060547e-05,6.07421875e-05,-7.421873092651367e-06,0.00024238281249999998
0.654,0.000161279296875,0.00019584960937499998,1.9677734374999998e-05,0.00010903319549560546,-3.266600799560547e-05,4.3115234374999995e-05,-7.177732467651367e-06,0.000238525390625
0.656,0.00015654296875,0.00019912109375,4.980469703674316e-06,0.00011005858612060547,-3.8183586120605464e-05,4.189453125e-05,-1.1132810592651367e-05,0.00023544921874999998
0.658,0.0001560546875,0.00020107421875,-2.9296875e-06,0.00012128905487060547,-3.720702743530273e-05,4.3945308685302736e-05,-9.375e-06,0.000237109375
0.66,0.00014262695312499999,0.00019604492187499998,-5.029296875e-06,0.00011860350799560546,-3.8330078125e-05,3.8916011810302734e-05,-1.1474609375e-05,0.00023081054687499998
0.662,0.00015078124999999998,0.00020195312499999998,3.1249999999999997e-06,0.00012382811737060546,-4.140624237060547e-05,4.042968368530273e-05,-1.591796875e-05,0.00023105468749999998
0.664,0.00017216796874999998,0.00021123046875,1.259765625e-05,0.00013759765625,-3.1152339935302735e-05,5.048827743530273e-05,-4.8828125e-06,0.00024257812499999998
0.666,0.00018007812499999998,0.00020439453124999999,1.2499999046325683e-05,0.00013876953125,-2.5976558685302733e-05,5.468749618530273e-05,1.66015625e-06,0.00024882812499999997
0.668,0.000168701171875,0.000201806640625,6.494139671325683e-06,0.00013696289062499999,-3.2763668060302734e-05,5.0732418060302734e-05,-5.712890625e-06,0.00024360351562499998
0.67,0.00016479492187499998,0.000202587890625,6.103514671325683e-06,0.00014096678161621093,-3.618163681030273e-05,5.493163681030273e-05,-9.228515625e-06,0.000244384765625
0.672,0.000159228515625,0.00020493164062499998,6.396483421325684e-06,0.000131494140625,-3.666991806030273e-05,5.112304306030273e-05,-8.349609375e-06,0.000243701171875
0.674,0.000148974609375,0.00019311523437499998,-1.3183574676513672e-06,0.00011948241424560546,-4.2236320495605465e-05,4.0478515625e-05,-1.4697263717651366e-05,0.00023520507812499998
0.676,0.00015273437499999998,0.00019033203125,-6.34765625e-06,0.00012089842987060547,-4.521483612060547e-05,3.9453121185302736e-05,-1.8261718749999998e-05,0.0002318359375
0.678,0.00016577148437499998,0.000195751953125,1.3183593749999999e-06,0.000128662109375,-3.745116424560547e-05,4.6240230560302734e-05,-1.1279296875e-05,0.00023842773437499998
0.68,0.00017709960937499998,0.000205224609375,1.4306640625e-05,0.000134716796875,-2.7392574310302732e-05,5.180663681030273e-05,-2.4902343749999998e-06,0.00024545898437499996
0.682,0.00018227539062499998,0.00021645507812499999,2.3486326217651367e-05,0.000135595703125,-1.7724609375e-05,5.424804306030273e-05,2.9785156249999998e-06,0.000247509765625
0.684,0.00018374023437499998,0.000219287109375,2.5634763717651368e-05,0.00014965818786621092,-1.4111328125e-05,5.473632431030273e-05,2.685546875e-06,0.000247119140625
0.686,0.00017387695312499999,0.000211376953125,1.3525390625e-05,0.000170263671875,-2.3583980560302732e-05,5.590819931030273e-05,-4.443359375e-06,0.000242041015625
0.688,0.0001693359375,0.00021064453125,1.15234375e-05,0.00015371093749999998,-3.437499618530273e-05,4.892577743530273e-05,-8.593749999999999e-06,0.00023935546874999998
0.69,0.000155322265625,0.000215087890625,1.3134764671325683e-05,9.985350799560547e-05,-3.3837890625e-05,3.569335556030273e-05,-6.298828125e-06,0.000237841796875
0.692,0.000141015625,0.00020361328125,5.9570312499999995e-06,0.00010185546112060546,-4.423828125e-05,3.242187118530273e-05,-1.494140625e-05,0.00022900390625
0.694,0.000143505859375,0.000193017578125,-2.9785156249999998e-06,0.00010522460174560546,-5.1904289245605464e-05,2.641601181030273e-05,-2.4365234375e-05,0.00022094726562499998
0.696,0.00015493164062499999,0.00020366210937499999,-3.8574218749999995e-06,0.00011440428924560546,-5.092772674560547e-05,3.2763668060302734e-05,-2.4169921874999998e-05,0.000222705078125
0.698,0.00016972656249999998,0.00020292968749999999,-4.8828125e-07,0.00011259764862060546,-4.4335929870605464e-05,3.955077743530273e-05,-1.8261718749999998e-05,0.00022763671875
0.7,0.000156005859375,0.00018452148437499998,-1.4990234374999999e-05,9.985350799560547e-05,-5.2392570495605464e-05,4.018554306030273e-05,-2.6904296874999998e-05,0.000222802734375
0.702,0.000151904296875,0.00019067382812499998,-1.9580078125e-05,0.00010336913299560546,-5.375975799560547e-05,3.2568355560302735e-05,-2.7099609375e-05,0.000222802734375
0.704,0.000157861328125,0.000195166015625,-1.1962890624999999e-05,0.00012719725799560547,-4.5458984375e-05,2.6611324310302734e-05,-1.7431640624999998e-05,0.00022807617187499998
0.706,0.000151220703125,0.00018276367187499998,-1.0693359375e-05,0.000155029296875,-4.7216796875e-05,2.9150386810302732e-05,-1.8310546875e-05,0.000227685546875
0.708,0.00014384765625,0.00017099609375,-1.318359375e-05,0.00015205078125,-5.7617179870605465e-05,2.8027339935302734e-05,-2.98828125e-05,0.00022021484374999998
0.71,0.000145166015625,0.000176025390625,-1.5966796875e-05,8.081054687499999e-05,-5.8154289245605466e-05,2.3388668060302733e-05,-3.0712890625e-05,0.00021870117187499998
0.712,0.000148876953125,0.000186083984375,-1.3623046874999999e-05,8.7646484375e-05,-5.1708976745605465e-05,2.7392574310302732e-05,-2.2509765624999998e-05,0.000224560546875
0.714,0.000150927734375,0.00018793945312499998,-9.521482467651367e-06,0.00010053710174560546,-5.209960174560547e-05,2.6806638717651367e-05,-2.3095701217651366e-05,0.00022465820312499998
0.716,0.000149462890625,0.000186865234375,-1.3427732467651367e-05,0.00010161132049560546,-5.922850799560546e-05,2.4560544967651367e-05,-3.0419919967651366e-05,0.000219775390625
0.718,0.000157958984375,0.000189794921875,-1.4306638717651367e-05,0.00010483397674560546,-5.942382049560547e-05,2.4560544967651367e-05,-3.1201169967651364e-05,0.000219384765625
0.72,0.00015400390624999998,0.00018974609375,-1.8945310592651366e-05,0.00010478514862060547,-6.240233612060546e-05,2.2851560592651366e-05,-3.37890625e-05,0.0002166015625
0.722,0.00015546874999999998,0.0001880859375,-1.6796875e-05,0.00010341796112060547,-6.0253898620605466e-05,2.0214839935302734e-05,-3.33984375e-05,0.0002158203125
0.724,0.00015244140625,0.00018212890625,-1.689453125e-05,0.00010195311737060547,-5.9277336120605465e-05,2.1777339935302734e-05,-3.2421875e-05,0.00021767578125
0.726,0.000144677734375,0.000177685546875,-2.0068359375e-05,0.00010659178924560546,-6.118163299560547e-05,2.4755855560302735e-05,-3.3056640625e-05,0.000219580078125
0.728,0.000138330078125,0.00017954101562499999,-2.3974609375e-05,0.00012319335174560547,-6.499022674560547e-05,2.924804306030273e-05,-3.5888671875e-05,0.000216162109375
0.73,0.00013759765625,0.00016904296875,-2.5390625e-05,0.0001419921875,-6.679686737060546e-05,3.7304683685302735e-05,-3.73046875e-05,0.00021689453125
0.732,0.000156640625,0.00018271484375,-1.0253906249999999e-05,8.408203125e-05,-5.732421112060546e-05,1.9726558685302733e-05,-2.8906249999999998e-05,0.00022099609375
0.734,0.000153662109375,0.000180615234375,-1.3720701217651367e-05,7.2119140625e-05,-6.3427734375e-05,7.177732467651367e-06,-3.4521484375e-05,0.00021235351562499998
0.736,0.00014208984375,0.00017119140624999998,-2.2753904342651366e-05,8.417967987060546e-05,-7.158202362060546e-05,5.6640605926513665e-06,-4.3847656249999996e-05,0.0002033203125
0.738,0.00014707031249999998,0.00017509765625,-2.1093748092651366e-05,8.994139862060546e-05,-7.011717987060546e-05,7.519529342651367e-06,-4.5019531249999995e-05,0.00020097656249999998
0.74,0.000147509765625,0.00017172851562499998,-2.4267578125e-05,8.813475799560547e-05,-7.407225799560546e-05,4.6386680603027346e-06,-4.6826171875e-05,0.00019750976562499999
0.742,0.0001443359375,0.00017832031249999998,-2.59765625e-05,8.9453125e-05,-7.509764862060547e-05,3.808589935302734e-06,-4.912109375e-05,0.00019628906249999998
0.744,0.00015200195312499998,0.000189990234375,-1.7236328125e-05,9.985350799560547e-05,-6.674803924560547e-05,1.5087886810302734e-05,-4.0380859375e-05,0.00020688476562499998
0.746,0.000155615234375,0.000197216796875,-8.251953125e-06,0.00010815428924560546,-5.9033195495605465e-05,2.2900386810302732e-05,-3.1298828124999995e-05,0.00021430664062499998
0.748,0.0001501953125,0.00019306640625,-1.23046875e-05,0.00010361327362060546,-6.337889862060546e-05,1.9238277435302733e-05,-3.544921875e-05,0.000208203125
0.75,0.00014912109375,0.00019189453124999998,-1.9921873092651367e-05,0.00010175780487060546,-6.796874237060547e-05,1.6210935592651365e-05,-3.96484375e-05,0.00020458984375
0.752,0.0001361328125,0.00018203124999999998,-2.8906248092651367e-05,9.619139862060547e-05,-7.314452362060547e-05,1.2792966842651367e-05,-4.4824218749999996e-05,0.00020087890625
0.754,0.00012739257049560547,0.000174755859375,-3.8232421875e-05,9.184569549560547e-05,-7.690428924560546e-05,7.470701217651367e-06,-5.0244140624999996e-05,0.00019506835937499998
0.756,0.00012998046875,0.0001572265625,-3.5546875e-05,9.003905487060546e-05,-7.714842987060546e-05,4.003902435302734e-06,-5.5468749999999996e-05,0.00018994140624999998
0.758,0.00013505859375,0.0001533203125,-2.9199214935302733e-05,8.49609375e-05,-7.431639862060546e-05,4.1015625e-06,-5.585936737060547e-05,0.00019013671874999998
0.76,0.00014453125,0.00017177734375,-1.85546875e-05,9.091796112060546e-05,-7.031249237060547e-05,7.617183685302734e-06,-4.9511718749999995e-05,0.00019433593749999998
0.762,0.00016044921875,0.000194140625,-8.105470657348633e-06,0.00010751952362060546,-6.904296112060546e-05,1.4550777435302734e-05,-4.296875e-05,0.00019921875
0.764,0.00016552734374999998,0.0001935546875,-1.0839843749999999e-05,0.00012900390625,-7.197264862060546e-05,1.7382808685302734e-05,-4.638671875e-05,0.00019921875
0.766,0.00015146484375,0.000176953125,-1.9921874999999998e-05,0.00014384765625,-7.763671112060546e-05,1.9531246185302734e-05,-5.3027343749999994e-05,0.00019365234375
0.768,0.00014521484375,0.00017470703125,-1.845703125e-05,7.1484375e-05,-7.05078125e-05,-2.929725646972656e-07,-4.62890625e-05,0.00019267578125
0.77,0.000139990234375,0.000167626953125,-3.1396484375e-05,6.274413681030273e-05,-7.4951171875e-05,-1.0253944396972657e-06,-4.7314453125e-05,0.000191259765625
0.772,0.000138671875,0.0001681640625,-3.740233993530273e-05,7.529296875e-05,-8.144530487060546e-05,-3.9062499999999997e-07,-5.2441398620605465e-05,0.00018798828125
0.774,0.000138525390625,0.000170849609375,-4.0283203124999995e-05,7.661132812499999e-05,-8.559569549560547e-05,-8.30078125e-07,-5.825194549560547e-05,0.000183447265625
0.776,0.00014326171875,0.00016728515624999998,-3.61328125e-05,7.773437499999999e-05,-8.300780487060547e-05,1.4550777435302734e-05,-5.693359375e-05,0.00018896484374999998
0.778,0.000154638671875,0.00016850585937499998,-2.0849609374999998e-05,8.8330078125e-05,-6.938475799560546e-05,1.8017574310302735e-05,-4.3994140625e-05,0.00019877929687499998
0.78,0.0001572265625,0.00018300781249999998,-9.765625e-06,9.970702362060547e-05,-6.201171875e-05,4.785154342651367e-06,-3.7695312499999996e-05,0.0001966796875
0.782,0.00015571289062499998,0.00018178710937499998,-1.5869140625e-05,9.536132049560546e-05,-6.7041015625e-05,9.277305603027344e-07,-4.3017578125e-05,0.000192236328125
0.784,0.000158349609375,0.000181396484375,-1.7041015625e-05,8.940428924560547e-05,-6.7919921875e-05,4.443355560302734e-06,-4.1943359374999995e-05,0.000194287109375
0.786,0.000152783203125,0.000185107421875,-1.7822265625e-05,0.00011196288299560546,-7.055663299560547e-05,9.423824310302734e-06,-4.3994140625e-05,0.000194287109375
0.788,0.000143310546875,0.00017612304687499998,-2.5537109375e-05,0.000140087890625,-7.905272674560547e-05,1.0009761810302734e-05,-5.2392578124999996e-05,0.000187548828125
0.79,0.000150439453125,0.00018276367187499998,-2.2900386810302732e-05,0.00010092772674560546,-7.514647674560547e-05,6.1035156249999995e-06,-4.9072257995605464e-05,0.00019086914062499999
0.792,0.0001623046875,0.00019267578125,-1.5429687499999998e-05,7.900390625e-05,-6.679686737060546e-05,1.4257808685302734e-05,-3.955078125e-05,0.00020097656249999998
0.794,0.0001599609375,0.0001853515625,-1.455078125e-05,8.974608612060547e-05,-6.494139862060546e-05,1.7382808685302734e-05,-3.828125e-05,0.00020263671875
0.796,0.00015830078125,0.0001826171875,-1.62109375e-05,9.179686737060546e-05,-6.777342987060546e-05,1.2011714935302734e-05,-4.2187499999999995e-05,0.00019677734374999999
0.798,0.00015522460937499998,0.00018793945312499998,-1.3916015624999999e-05,9.477538299560546e-05,-6.557616424560546e-05,1.0888668060302734e-05,-3.9990234375e-05,0.00019584960937499998
0.8,0.00014809570312499998,0.000171337890625,-1.5673828125e-05,8.8037109375e-05,-6.6455078125e-05,7.470699310302734e-06,-4.1552734375e-05,0.000193701171875
0.802,0.000150927734375,0.00016479492187499998,-1.5771484374999998e-05,8.6181640625e-05,-6.850585937499999e-05,4.345699310302734e-06,-4.5166015625e-05,0.000191943359375
0.804,0.00016186523437499998,0.000173291015625,-1.0693359375e-05,9.1845703125e-05,-6.7822265625e-05,5.322261810302734e-06,-4.5361328125e-05,0.00019135742187499999
0.806,0.000162744140625,0.000186865234375,-1.1279296875e-05,9.643553924560547e-05,-6.8896484375e-05,5.126949310302734e-06,-4.6240234374999996e-05,0.000190087890625
0.808,0.000160693359375,0.000198974609375,-1.0595703125e-05,0.00010161132049560546,-6.860350799560547e-05,1.0205074310302733e-05,-4.6435546874999995e-05,0.000192333984375
0.81,0.000164892578125,0.000200830078125,-1.0009765624999999e-05,0.00010747069549560547,-6.499022674560547e-05,1.6845699310302735e-05,-4.2041015625e-05,0.000196923828125
0.812,0.00016235351562499998,0.00018569335937499999,-1.4208984374999999e-05,0.00010043944549560546,-6.655272674560546e-05,1.4794918060302734e-05,-4.1845703125e-05,0.00019653320312499998
0.814,0.000153271484375,0.00018305664062499998,-2.3583982467651367e-05,9.301757049560546e-05,-7.270507049560546e-05,7.275388717651367e-06,-4.7607421874999995e-05,0.000190576171875
0.816,0.000149609375,0.00018574218749999998,-2.5683591842651366e-05,0.00010185546112060546,-7.499999237060547e-05,3.613279342651367e-06,-4.9609375e-05,0.00018769531249999998
0.818,0.0001455078125,0.000180859375,-2.5585937499999998e-05,0.00013427734374999998,-7.656249237060547e-05,7.714839935302735e-06,-5.087890625e-05,0.0001873046875
0.82,0.000155810546875,0.00017807617187499998,-1.9091796874999998e-05,9.643553924560547e-05,-7.4365234375e-05,-3.5644569396972653e-06,-5.0927734374999995e-05,0.00018354492187499998
0.822,0.00015537109375,0.00017978515624999999,-1.875e-05,6.406249999999999e-05,-7.626952362060546e-05,-7.91015625e-06,-5.615233612060546e-05,0.0001787109375
0.824,0.00015,0.00016953125,-1.62109375e-05,8.505859375e-05,-7.001952362060546e-05,8.300777435302734e-06,-5.078125e-05,0.00018486328125
0.826,0.00015478515625,0.00018095703125,-1.62109375e-05,9.999999237060547e-05,-6.308592987060547e-05,1.6015621185302735e-05,-4.16015625e-05,0.00019404296875
0.828,0.000156396484375,0.00018129882812499998,-2.0947263717651366e-05,9.340819549560546e-05,-6.5478515625e-05,6.103513717651367e-06,-4.6142578125e-05,0.000187353515625
0.83,0.000153759765625,0.00017934570312499998,-2.5927734374999997e-05,8.647460174560546e-05,-6.8017578125e-05,9.277315139770507e-07,-5.2197265625e-05,0.000180224609375
0.832,0.00015175781249999998,0.0001794921875,-2.431640625e-05,8.671874237060546e-05,-7.216796875e-05,3.5156221389770507e-06,-5.41015625e-05,0.00018076171875
0.834,0.000149365234375,0.000181005859375,-2.5927734374999997e-05,8.725585174560546e-05,-8.500975799560546e-05,2.7832002639770505e-06,-6.1181640625e-05,0.000178662109375
0.836,0.000150146484375,0.000172802734375,-3.0517576217651365e-05,7.9638671875e-05,-8.969725799560546e-05,-4.248048782348633e-06,-6.713867187499999e-05,0.00017338867187499999
0.838,0.00015771484375,0.00017568359375,-2.8906246185302732e-05,8.369140625e-05,-8.271483612060546e-05,-6.835937499999999e-06,-6.210936737060546e-05,0.00017236328125
0.84,0.000161767578125,0.000177197265625,-2.6025388717651365e-05,8.891600799560547e-05,-7.8662109375e-05,-3.1738300323486325e-06,-5.9326171875e-05,0.000175048828125
0.842,0.000165478515625,0.000182470703125,-2.2021484375e-05,9.428710174560546e-05,-7.651366424560546e-05,3.4179401397705075e-07,-5.9521484375e-05,0.000177197265625
0.844,0.00016528320312499998,0.000189501953125,-1.6259765624999998e-05,9.614257049560547e-05,-7.133789062499999e-05,-1.464872360229492e-07,-5.3662109375e-05,0.000180517578125
0.846,0.00015913085937499998,0.000191943359375,-1.6455078125e-05,8.715819549560547e-05,-7.1240234375e-05,-1.7089872360229492e-06,-5.2587890624999995e-05,0.00018129882812499998
0.848,0.000150244140625,0.000176513671875,-2.6806638717651367e-05,8.481444549560547e-05,-8.032226562499999e-05,-8.056642532348632e-06,-6.1572265625e-05,0.000171826171875
0.85,0.0001482421875,0.00015869140625,-3.37890625e-05,0.00010791014862060546,-8.828124237060547e-05,-6.933595657348633e-06,-6.826171874999999e-05,0.00016533203125
0.852,0.000135791015625,0.000140771484375,-4.741210556030273e-05,0.00012534178924560545,-0.00010434569549560546,-1.9042959213256836e-06,-8.383788299560547e-05,0.000156494140625
0.854,0.00013466796875,0.000151171875,-5.146484375e-05,5.64453125e-05,-0.00010927733612060546,-1.0937499046325683e-05,-8.876952362060547e-05,0.00015849609375
0.856,0.00013696289062499999,0.000167626953125,-4.7509765625e-05,4.0185546875e-05,-0.00010336913299560546,-1.3232423782348633e-05,-8.2080078125e-05,0.000163623046875
0.858,0.000145556640625,0.00017836914062499998,-4.1552730560302735e-05,6.704100799560546e-05,-9.575194549560546e-05,-8.544923782348632e-06,-7.4853515625e-05,0.000167626953125
0.86,0.00014541015625,0.00016503906249999998,-4.3164058685302734e-05,6.904296112060546e-05,-9.892577362060546e-05,-1.738281440734863e-05,-7.919921874999999e-05,0.00016220703125
0.862,0.000148486328125,0.000168603515625,-3.901366806030273e-05,7.016600799560547e-05,-9.5654296875e-05,-3.2080078125e-05,-7.895507812499999e-05,0.00016137695312499998
0.864,0.0001435546875,0.00016787109375,-4.4628902435302735e-05,6.748046112060547e-05,-9.8828125e-05,-3.056640815734863e-05,-8.037109375e-05,0.00016025390625
0.866,0.000139013671875,0.000151416015625,-4.7705074310302735e-05,6.118163681030273e-05,-0.000102978515625,-2.954101753234863e-05,-8.5400390625e-05,0.00015815429687499998
0.868,0.0001302734375,0.00015595703124999998,-5.087890243530273e-05,6.201171493530273e-05,-0.00010849608612060547,-3.2519527435302734e-05,-9.072264862060547e-05,0.000153125
0.87,0.0001296875,0.00014814453125,-5.605467987060547e-05,5.673828125e-05,-0.00010810546112060547,-3.115234184265136e-05,-8.828124237060547e-05,0.00015576171875
0.872,0.000141064453125,0.000150732421875,-5.512694931030273e-05,8.237303924560547e-05,-0.00010141600799560546,-2.0654298782348633e-05,-7.944335937499999e-05,0.000165087890625
0.874,0.00014033203125,0.00015927734375,-4.8144527435302734e-05,0.00011777342987060546,-0.00010429686737060547,-1.6113283157348632e-05,-8.408203125e-05,0.00016572265625
0.876,0.00012382811737060546,0.0001623046875,-4.785155868530273e-05,8.242186737060546e-05,-0.00010410155487060546,-2.12890625e-05,-8.369140625e-05,0.0001642578125
0.878,0.00012226561737060547,0.00016572265625,-4.589843368530273e-05,3.45703125e-05,-9.970703125e-05,-2.353515815734863e-05,-7.773437499999999e-05,0.000168359375
0.88,0.00011489257049560547,0.00015668945312499998,-5.258788681030273e-05,4.3017578125e-05,-0.00010541991424560547,-2.6904298782348633e-05,-8.3544921875e-05,0.00016430664062499998
0.882,0.00011982421112060546,0.00015107421875,-5.2636714935302734e-05,4.970703125e-05,-0.00010566405487060547,-2.695312690734863e-05,-8.4765625e-05,0.000164453125
0.884,0.00013701171874999998,0.00015126953124999998,-4.9316398620605464e-05,5.126953125e-05,-9.863280487060547e-05,-2.5097654342651366e-05,-7.822264862060547e-05,0.000169921875
0.886,0.00014033203125,0.0001392578125,-5.6152343749999996e-05,5.29296875e-05,-9.326171112060546e-05,-2.6660154342651367e-05,-7.578124237060546e-05,0.00016953125
0.888,0.000149169921875,0.000137158203125,-4.8486328125e-05,6.0400390624999995e-05,-8.881835937499999e-05,-1.8115236282348632e-05,-6.8896484375e-05,0.000176220703125
0.89,0.00016157226562499999,0.000157373046875,-3.5498046875e-05,7.504882049560546e-05,-8.959960174560546e-05,-4.4433612823486325e-06,-6.2353515625e-05,0.000188037109375
0.892,0.000160009765625,0.000172314453125,-3.833007431030273e-05,7.514647674560547e-05,-9.321288299560547e-05,-5.322267532348632e-06,-6.5771484375e-05,0.00018549804687499998
0.894,0.000142724609375,0.000167626953125,-4.4580074310302733e-05,6.713866424560547e-05,-9.985350799560547e-05,-1.5771486282348633e-05,-7.5048828125e-05,0.000173779296875
0.896,0.00013515625,0.00017343749999999998,-4.6289058685302735e-05,6.201171493530273e-05,-0.00010332030487060547,-1.962890815734863e-05,-7.98828125e-05,0.0001685546875
0.898,0.00012524413299560546,0.00016333007812499998,-4.5361324310302736e-05,7.124022674560546e-05,-0.00010063475799560546,-1.547851753234863e-05,-7.661132812499999e-05,0.00017192382812499998
0.9,0.00011835936737060546,0.0001484375,-5.224609375e-05,6.552734374999999e-05,-0.00010351561737060546,-1.8164064407348633e-05,-7.841796875e-05,0.0001701171875
0.902,0.00011660155487060547,0.000141796875,-5.5761711120605466e-05,5.9765625e-05,-0.00010146483612060547,-2.1972654342651368e-05,-7.812499237060546e-05,0.00016962890625
0.904,0.00012490233612060547,0.00014980468749999998,-4.1015624999999996e-05,7.499999237060547e-05,-8.935546112060546e-05,-9.667970657348632e-06,-6.484375e-05,0.00017890625
0.906,0.00013388671875,0.000155078125,-2.6855466842651365e-05,7.958983612060546e-05,-7.822265624999999e-05,-4.687501907348633e-06,-5.361328125e-05,0.0001869140625
0.908,0.000131689453125,0.000147607421875,-3.8037105560302736e-05,7.456053924560546e-05,-8.598632812499999e-05,-1.0205080032348632e-05,-6.157226181030273e-05,0.00018081054687499998
0.91,0.00013369140625,0.00014111328125,-4.6972652435302734e-05,6.962889862060546e-05,-9.003906249999999e-05,-1.3769533157348633e-05,-6.533203125e-05,0.00017578125
0.912,0.00013603515625,0.00013681640625,-4.550780868530273e-05,6.455077362060547e-05,-9.130858612060546e-05,-1.4062501907348633e-05,-6.406249999999999e-05,0.00017548828125
0.914,0.000133203125,0.00014013671875,-4.824218368530273e-05,6.220702743530274e-05,-9.873046112060547e-05,-1.582031440734863e-05,-7.08984375e-05,0.00017412109375
0.916,0.00013271484375,0.00014794921875,-4.921874618530273e-05,5.6640624999999996e-05,-0.00010156249237060547,-2.021484565734863e-05,-7.548828125e-05,0.0001689453125
0.918,0.000132373046875,0.00015053710937499998,-4.9072265624999996e-05,5.8740234374999995e-05,-9.848632049560547e-05,-1.7919923782348633e-05,-7.2021484375e-05,0.00017094726562499998
0.92,0.000135302734375,0.000155908203125,-4.7900386810302734e-05,6.3916015625e-05,-8.940428924560547e-05,-1.2451173782348632e-05,-6.323241806030273e-05,0.000177978515625
0.922,0.00012978515625,0.00014902343749999999,-5.5273433685302735e-05,6.630858612060546e-05,-8.906249237060546e-05,1.4648423194885252e-06,-6.376952743530273e-05,0.0001828125
0.924,0.000135888671875,0.000155126953125,-4.868163681030273e-05,7.319335174560546e-05,-8.540038299560546e-05,7.958982467651366e-06,-6.0009761810302735e-05,0.00018793945312499998
0.926,0.000152294921875,0.00016948242187499998,-2.7490232467651367e-05,8.334960174560547e-05,-7.1923828125e-05,-3.0761735439300538e-06,-4.633788681030273e-05,0.000193994140625
0.928,0.00014111328125,0.00017275390625,-2.7539060592651365e-05,8.056639862060546e-05,-7.578125e-05,-8.105470657348633e-06,-4.882812118530273e-05,0.00018935546875
0.93,0.00013574218749999999,0.00017539062499999998,-2.8613279342651365e-05,8.105467987060547e-05,-8.007812499999999e-05,-5.859376907348632e-06,-5.2636714935302734e-05,0.00018671874999999998
0.932,0.000131396484375,0.00016723632812499999,-4.2529296875e-05,7.524413299560547e-05,-8.481444549560547e-05,-4.052736282348632e-06,-5.6396484374999996e-05,0.00018374023437499998
0.934,0.00012504882049560546,0.000139013671875,-5.1416015624999996e-05,6.8212890625e-05,-8.5888671875e-05,-1.2841798782348632e-05,-6.1181640625e-05,0.00017709960937499998
0.936,0.00012456053924560546,0.000145263671875,-5.024413681030273e-05,0.00010795897674560547,-8.325194549560547e-05,-4.931642532348633e-06,-6.079101181030273e-05,0.000179150390625
0.938,0.00012983398437499999,0.000154345703125,-3.696288681030273e-05,9.770507049560546e-05,-7.836913299560546e-05,2.7832014560699464e-06,-5.5029293060302735e-05,0.000187744140625
0.94,0.00012666014862060547,0.00014296875,-3.0468748092651367e-05,5.17578125e-05,-8.535155487060547e-05,6.835920810699463e-07,-5.5468746185302734e-05,0.00019238281249999998
0.942,0.00011850585174560546,0.000134326171875,-3.598632431030273e-05,5.3759765624999995e-05,-8.891600799560547e-05,-6.298829555511474e-06,-6.030273056030273e-05,0.000187060546875
0.944,0.00012001952362060547,0.00013505859375,-3.876952743530273e-05,6.142578125e-05,-8.291014862060546e-05,-6.054689407348633e-06,-5.576171493530273e-05,0.000187109375
0.946,0.00012490233612060547,0.00013642578125,-4.0136714935302735e-05,6.513671112060547e-05,-8.447264862060547e-05,-4.101564407348633e-06,-5.5468746185302734e-05,0.0001890625
0.948,0.00012709960174560548,0.000135791015625,-4.0478515625e-05,6.4208984375e-05,-9.047850799560547e-05,-7.861330032348633e-06,-6.2060546875e-05,0.000182470703125
0.95,0.00013740234375,0.00014804687499999999,-3.896484375e-05,6.46484375e-05,-8.974608612060547e-05,-6.835939884185791e-06,-6.162109375e-05,0.00018134765625
0.952,0.00014873046875,0.00015273437499999998,-3.2421875e-05,7.314452362060547e-05,-8.193358612060546e-05,-9.76581573486328e-08,-5.3808593749999996e-05,0.0001880859375
0.954,0.00014423828125,0.0001513671875,-3.3496089935302734e-05,7.275389862060547e-05,-8.193358612060546e-05,-8.789076805114746e-07,-5.390624618530273e-05,0.00018740234375
0.956,0.000136279296875,0.000153662109375,-3.784179306030273e-05,7.026366424560546e-05,-8.354491424560546e-05,-4.443360805511475e-06,-5.581054306030273e-05,0.000182958984375
0.958,0.00013720703124999999,0.0001533203125,-3.6328121185302734e-05,9.707030487060546e-05,-8.701171112060546e-05,-8.789079189300537e-07,-6.015624618530273e-05,0.0001818359375
0.96,0.00012041014862060547,0.00013125,-4.8632808685302734e-05,0.00015205078125,-0.00010380858612060547,6.542966842651367e-06,-7.75390625e-05,0.00017216796874999998
0.962,0.000130712890625,0.000139306640625,-3.579101181030273e-05,8.784178924560546e-05,-9.057616424560546e-05,-1.4111330032348632e-05,-7.231445312499999e-05,0.00017094726562499998
0.964,0.000159423828125,0.000170849609375,-1.8017578124999998e-05,2.2021482467651366e-05,-7.9736328125e-05,-1.9775390625e-05,-5.9033203125e-05,0.000180908203125
0.966,0.00015224609374999998,0.00016406249999999998,-1.2792970657348632e-05,4.072265243530273e-05,-7.880859375e-05,-2.0019531249999997e-05,-6.26953125e-05,0.000176953125
0.968,0.0001439453125,0.0001638671875,-1.2695314407348632e-05,5.7324218749999995e-05,-7.8125e-05,-1.6015624999999998e-05,-6.435546875e-05,0.00017451171875
0.97,0.00015087890625,0.00017197265624999998,-2.4804685592651368e-05,7.119139862060547e-05,-7.802734375e-05,-4.980470180511475e-06,-6.083983993530273e-05,0.00018310546875
0.972,0.0001625,0.000180859375,-4.3652339935302734e-05,7.568358612060546e-05,-8.642577362060547e-05,-9.765639305114746e-07,-5.937499618530273e-05,0.0001880859375
0.974,0.000152685546875,0.000175927734375,-4.809569931030273e-05,7.036132049560546e-05,-9.868163299560546e-05,-6.6894545555114746e-06,-6.5576171875e-05,0.000181884765625
0.976,0.0001369140625,0.0001580078125,-5.507812118530273e-05,5.888671493530273e-05,-0.00011367186737060546,-8.203125953674317e-06,-7.783203125e-05,0.0001708984375
0.978,0.00012109374237060546,0.00013378906249999998,-6.6796875e-05,5.351562118530273e-05,-0.00011914061737060546,-7.226563453674316e-06,-8.408203125e-05,0.00016601562499999998
0.98,0.00013725585937499998,0.000149658203125,-5.229491806030273e-05,5.4931640624999995e-05,-0.00011030272674560547,-2.6513671874999997e-05,-8.2568359375e-05,0.000165087890625
0.982,0.000140966796875,0.000152197265625,-4.7900386810302734e-05,5.7861324310302734e-05,-0.000106201171875,-3.7353515625e-05,-8.4814453125e-05,0.00015991210937499998
0.984,0.000158203125,0.00016650390624999999,-3.7695312499999996e-05,9.638671112060547e-05,-9.941405487060546e-05,-1.9433593749999998e-05,-7.548828125e-05,0.000168359375
0.986,0.000157470703125,0.00016528320312499998,-3.2373046875e-05,0.00012290038299560545,-8.872069549560546e-05,-1.2744141578674317e-05,-6.8701171875e-05,0.000169873046875
0.988,0.00014384765625,0.0001560546875,-3.61328125e-05,4.4531249999999995e-05,-8.22265625e-05,-2.7734374999999998e-05,-6.69921875e-05,0.00016201171875
0.99,0.000142822265625,0.000151904296875,-3.0712890625e-05,2.7001953124999998e-05,-8.0517578125e-05,-3.5302734375e-05,-6.665039062499999e-05,0.000156103515625
0.992,0.00015546874999999998,0.000160546875,-2.744140625e-05,5.371093368530273e-05,-8.73046875e-05,-2.96875e-05,-7.119140624999999e-05,0.00016123046875
0.994,0.000143701171875,0.000156982421875,-4.809569931030273e-05,8.510741424560547e-05,-0.00010385741424560546,-2.7490234374999998e-05,-8.5205078125e-05,0.000160205078125
0.996,0.000137646484375,0.000152099609375,-7.0751953125e-05,7.856444549560547e-05,-0.00011303710174560547,-2.6611328125e-05,-9.3212890625e-05,0.000158056640625
0.998,0.000135595703125,0.000149365234375,-6.5576171875e-05,2.4658201217651367e-05,-9.9462890625e-05,-3.7841796875e-05,-9.2529296875e-05,0.000151220703125
1.0,0.00012558592987060545,0.00015087890625,-6.005858993530273e-05,2.822265625e-05,-8.623046874999999e-05,-3.9843749999999996e-05,-8.994140625e-05,0.00015009765625
1.002,0.000124072265625,0.00014633789062499998,-6.215819931030273e-05,3.3447265624999996e-05,-8.842773437499999e-05,-3.5205078125e-05,-8.8720703125e-05,0.000151904296875
1.004,0.000149853515625,0.00016235351562499998,-5.258788681030273e-05,5.297851181030273e-05,-0.00011831053161621093,-5.712890625e-06,-8.1982421875e-05,0.000169677734375
1.006,0.00017148437499999998,0.00018007812499999998,-4.111328125e-05,6.708984375e-05,-0.00012167967224121094,-1.1328125e-05,-7.773437499999999e-05,0.00017343749999999998
1.008,0.00017392578124999998,0.00017607421875,-4.306640625e-05,6.835937499999999e-05,-0.00011630857849121093,-2.7734374999999998e-05,-8.466796875e-05,0.00016328125
1.01,0.000160546875,0.00015537109375,-4.8339843749999996e-05,6.123046493530274e-05,-0.00011093749999999999,-3.447265625e-05,-8.828125e-05,0.00015371093749999998
1.012,0.00014091796874999998,0.0001484375,-5.634765243530273e-05,4.98046875e-05,-0.00010947265624999999,-4.072265625e-05,-8.759765625e-05,0.00014912109375
1.014,0.00013349609375,0.00013251953125,-6.181640243530273e-05,4.7656246185302733e-05,-0.00012519530487060547,-4.072265243530273e-05,-9.482421112060547e-05,0.00014619140625
1.016,0.000140869140625,0.000131982421875,-5.463866806030273e-05,5.180663681030273e-05,-0.00012446287536621093,-3.7060546875e-05,-9.555664062499999e-05,0.000145654296875
1.018,0.0001443359375,0.000136328125,-3.232421875e-05,3.61328125e-05,-0.00010136718749999999,-4.6484374999999997e-05,-8.798828125e-05,0.00014140624999999998
1.02,0.00013032226562499999,0.00013305664062499998,-3.8330078125e-05,3.0322265624999998e-05,-9.7998046875e-05,-5.415038681030273e-05,-9.0185546875e-05,0.000133837890625
1.022,0.000116943359375,0.00013549804687499998,-6.5478515625e-05,3.2861328125e-05,-0.00011254882812499999,-5.2197265625e-05,-9.360351562499999e-05,0.000136865234375
1.024,0.00012246093749999998,0.000145703125,-7.431640625e-05,4.326171875e-05,-0.00011884764099121094,-4.12109375e-05,-8.73046875e-05,0.00015029296874999998
1.026,0.00012387694549560545,0.00014116210937499998,-7.4365234375e-05,4.7705078125e-05,-0.00012397460174560547,-3.4228515625e-05,-8.891601562499999e-05,0.000155029296875
1.028,0.00012431639862060546,0.00013740234375,-7.65625e-05,4.3652347564697266e-05,-0.00012470702362060547,-3.8671871185302734e-05,-9.199217987060547e-05,0.000149609375
1.03,0.000135302734375,0.000138427734375,-7.094726562499999e-05,4.4091800689697265e-05,-0.00012465819549560547,-3.6376949310302736e-05,-9.272460174560547e-05,0.000151123046875
1.032,0.0001421875,0.00014316406249999998,-6.0937496185302734e-05,5.2148437499999996e-05,-0.00011621092987060547,-2.695312690734863e-05,-8.466796875e-05,0.0001595703125
1.034,0.000137548828125,0.000139306640625,-6.254882431030273e-05,5.034179306030273e-05,-0.00011625975799560546,-2.9248046874999998e-05,-8.559570312499999e-05,0.000157080078125
1.036,0.00012797850799560546,0.000130615234375,-6.5087890625e-05,4.7314453125e-05,-0.00011635741424560547,-3.4912109375e-05,-8.8134765625e-05,0.00015004882812499998
1.038,0.00012080077362060547,0.00012998046875,-6.396483993530273e-05,4.794921875e-05,-0.00011572264862060547,-3.779296875e-05,-8.632812499999999e-05,0.0001486328125
1.04,0.00012045897674560546,0.00012504882049560546,-6.137694931030273e-05,4.3212890625e-05,-0.00011508788299560546,-3.9111328124999995e-05,-8.7060546875e-05,0.000148681640625
1.042,0.00011918944549560547,0.00012690428924560547,-6.450194549560547e-05,4.448242568969726e-05,-0.00011596678924560547,-3.676757431030273e-05,-8.979491424560546e-05,0.000148193359375
1.044,0.00012597655487060546,0.00013564453125,-5.7910148620605466e-05,4.746094131469726e-05,-0.00010908202362060547,-3.486327743530273e-05,-8.359374237060547e-05,0.00015185546875
1.046,0.00013378906249999998,0.0001380859375,-5.4296867370605464e-05,4.853515625e-05,-0.00010478514862060547,-3.359375e-05,-7.949217987060546e-05,0.000153515625
1.048,0.00014165039062499998,0.00014311523437499999,-5.4052730560302734e-05,5.0634765625e-05,-0.00010346679687499999,-2.954101753234863e-05,-7.9541015625e-05,0.00015493164062499999
1.05,0.000145947265625,0.00015102539062499998,-5.698241806030273e-05,5.297851181030273e-05,-0.00010541991424560547,-2.5732421875e-05,-8.0224609375e-05,0.00016040039062499998
1.052,0.0001486328125,0.00015517578124999999,-5.488280868530273e-05,5.292968368530273e-05,-0.00010722655487060547,-2.87109375e-05,-8.037109375e-05,0.00015791015624999998
1.054,0.000136376953125,0.000143505859375,-6.4892578125e-05,5.9521480560302735e-05,-0.00011860350036621094,-3.8232421875e-05,-9.0966796875e-05,0.000144482421875
1.056,0.00011464842987060547,0.00012880859375,-7.978514862060547e-05,7.851561737060546e-05,-0.00013095701599121092,-3.769530868530273e-05,-0.00010126952362060546,0.00013740234375
1.058,0.00011220702362060546,0.00012011717987060546,-7.724609374999999e-05,5.449218368530273e-05,-0.00012783202362060545,-4.101562118530273e-05,-9.648436737060546e-05,0.00014228515625
1.06,0.00011542967987060546,0.00012421874237060547,-7.050780487060546e-05,6.6406273841857906e-06,-0.00011855467987060547,-5.117187118530273e-05,-8.867186737060547e-05,0.00014658203124999998
1.062,0.00010405272674560547,0.00011479491424560546,-7.5048828125e-05,1.3818361282348632e-05,-0.00012202147674560547,-5.4541011810302734e-05,-9.223632049560547e-05,0.000141552734375
1.064,0.00010517577362060546,0.00012568358612060547,-6.650389862060547e-05,3.2519535064697266e-05,-0.00011220702362060546,-4.277343368530273e-05,-8.388671112060546e-05,0.0001494140625
1.066,0.00012705077362060545,0.0001330078125,-5.7128902435302734e-05,4.326171875e-05,-0.0001064453125,-3.30078125e-05,-7.79296875e-05,0.000158203125
1.068,0.00012763671112060547,0.00014765625,-6.269530868530274e-05,4.580078125e-05,-0.00011259764862060546,-3.525390625e-05,-8.310546875e-05,0.000155859375
1.07,0.00012910156249999998,0.000141015625,-7.01171875e-05,4.0625e-05,-0.00012041014862060547,-3.4374999999999995e-05,-9.0234375e-05,0.00015273437499999998
1.072,0.00012260741424560546,0.00012016600799560547,-7.758789062499999e-05,3.4228515625e-05,-0.00013061521911621093,-2.5634765625e-05,-9.829101562499999e-05,0.000152783203125
1.074,0.00011816405487060546,0.00012246092987060547,-7.490233612060547e-05,3.496094131469726e-05,-0.00013183592224121093,-3.857421493530273e-05,-9.931639862060546e-05,0.00015048828125
1.076,0.00011572264862060547,0.00012070311737060546,-7.207030487060547e-05,3.3886722564697264e-05,-0.00012460936737060545,-5.3613277435302735e-05,-9.589842987060547e-05,0.0001427734375
1.078,0.00011074217987060546,0.00011796874237060547,-8.0859375e-05,3.1445314407348634e-05,-0.00012285155487060546,-5.4785152435302734e-05,-9.609374237060546e-05,0.00013818359375
1.08,0.00011040038299560546,0.00012084960174560546,-7.749023437499999e-05,3.7744144439697266e-05,-0.00011987303924560546,-4.2529293060302736e-05,-9.018553924560546e-05,0.000148193359375
1.082,0.00011240234375,0.00012783203125,-6.81640625e-05,4.365234375e-05,-0.00012255857849121092,-3.33984375e-05,-8.681640624999999e-05,0.00015751953125
1.084,0.000114599609375,0.000120849609375,-6.391601181030272e-05,4.2626953125e-05,-0.00011733396911621093,-3.3447265624999996e-05,-8.3349609375e-05,0.000158056640625
1.086,0.00011845702362060547,0.00011181639862060547,-6.249999618530273e-05,4.140625e-05,-0.00011347655487060546,-3.49609375e-05,-8.193359375e-05,0.0001576171875
1.088,0.00012656249237060545,0.00012314452362060545,-6.767578125e-05,4.6484374999999997e-05,-0.00011757811737060547,-3.662109375e-05,-8.769531249999999e-05,0.00015371093749999998
1.09,0.00013403320312499998,0.00014291992187499998,-7.0556640625e-05,5.2392574310302734e-05,-0.00011938475036621093,-3.5693359375e-05,-8.979492187499999e-05,0.00015200195312499998
1.092,0.00014248046875,0.00014794921875,-6.728514862060546e-05,4.9707035064697264e-05,-0.00012001952362060547,-3.339843368530273e-05,-8.994139862060546e-05,0.00015244140625
1.094,0.000137109375,0.00013642578125,-6.767577362060546e-05,4.0820316314697266e-05,-0.00012392577362060547,-4.003905868530273e-05,-9.482421112060547e-05,0.00014599609375
1.096,0.0001369140625,0.000140234375,-6.0449214935302734e-05,4.755859375e-05,-0.00011367186737060546,-3.5839843749999997e-05,-8.505859375e-05,0.00015078124999999998
1.098,0.000134228515625,0.00014438476562499998,-5.698241806030273e-05,5.6201168060302734e-05,-0.00010649413299560547,-2.5830078124999998e-05,-7.6416015625e-05,0.000159716796875
1.1,0.00013798828124999998,0.00014169921875,-5.585937118530273e-05,5.6933589935302735e-05,-0.00010742186737060546,-2.6660156249999998e-05,-7.8125e-05,0.00015859375
1.102,0.00013046875,0.00013662109375,-5.917968368530273e-05,5.458983993530273e-05,-0.00011152342987060546,-3.134765625e-05,-8.28125e-05,0.00015419921874999999
1.104,0.00013818359375,0.00014501953125,-5.468749618530273e-05,5.888671493530273e-05,-0.00010576171112060547,-2.75390625e-05,-7.705078125e-05,0.00015908203125
1.106,0.000142724609375,0.000148681640625,-5.356444931030273e-05,6.0205074310302734e-05,-0.00010444335174560546,-2.5830080032348633e-05,-7.5537109375e-05,0.00016186523437499998
1.108,0.00014858398437499998,0.000150341796875,-6.118163681030273e-05,5.8642578125e-05,-0.00010668944549560546,-2.7490236282348633e-05,-8.041992187499999e-05,0.000158251953125
1.11,0.00014560546874999998,0.00015371093749999998,-6.386718368530273e-05,5.888672256469726e-05,-0.00010732421112060546,-2.5292966842651365e-05,-8.076171112060547e-05,0.0001591796875
1.112,0.000152685546875,0.000164013671875,-4.975585556030273e-05,6.958007049560547e-05,-9.809569549560546e-05,-1.4013673782348633e-05,-7.0361328125e-05,0.000171142578125
1.114,0.00015322265624999998,0.00016113281249999998,-4.541015243530273e-05,7.314452362060547e-05,-9.843749237060546e-05,-1.2402344703674315e-05,-7.207031249999999e-05,0.00017167968749999998
1.116,0.0001541015625,0.00016396484375,-4.541015243530273e-05,7.080077362060547e-05,-0.00010058592987060547,-1.640625e-05,-7.529296875e-05,0.00016640625
1.118,0.00015371093749999998,0.00015869140625,-4.345703125e-05,7.041014862060547e-05,-9.902342987060546e-05,-2.1582031249999998e-05,-7.587890624999999e-05,0.0001623046875
1.12,0.00015625,0.00015166015625,-3.876953125e-05,7.041014862060547e-05,-0.00010205077362060547,-2.4414062499999998e-05,-8.125e-05,0.00015927734375
1.122,0.000144091796875,0.000147216796875,-4.711913681030273e-05,6.118163681030273e-05,-0.000103271484375,-3.0615234374999996e-05,-8.4716796875e-05,0.000152197265625
1.124,0.000140478515625,0.00015395507812499998,-4.4580074310302733e-05,6.401366424560547e-05,-9.8681640625e-05,-2.7978517532348633e-05,-7.9736328125e-05,0.00015395507812499998
1.126,0.000147607421875,0.000163134765625,-3.6376949310302736e-05,7.368163299560546e-05,-0.00010131835174560547,-1.8701173782348632e-05,-7.475585937499999e-05,0.000163916015625
1.128,0.00015341796875,0.0001609375,-2.6757812499999997e-05,7.490233612060547e-05,-9.472655487060546e-05,-1.5429689407348633e-05,-7.109375e-05,0.00016669921875
1.13,0.0001556640625,0.00016708984375,-2.8906249999999998e-05,7.089842987060546e-05,-8.857421874999999e-05,-1.7578125e-05,-7.070312499999999e-05,0.00016474609375
1.132,0.00014580078125,0.0001578125,-4.3164058685302734e-05,6.611327362060547e-05,-9.4921875e-05,-2.080078125e-05,-7.431640625e-05,0.000158203125
1.134,0.00012802734375,0.00014228515625,-6.669921875e-05,5.7617183685302734e-05,-0.00011103514099121093,-2.8515625e-05,-8.525390625e-05,0.00014912109375
1.136,0.000131396484375,0.000144970703125,-6.7822265625e-05,5.083007431030273e-05,-0.00011801756286621093,-3.6865234375e-05,-9.311523437499999e-05,0.000147119140625
1.138,0.00013388671875,0.00014130859375,-5.9277339935302734e-05,5.185546493530273e-05,-0.0001162109375,-3.955078125e-05,-9.599609375e-05,0.00014316406249999998
1.14,0.00013183593749999998,0.00013466796875,-4.4824218749999996e-05,4.47265625e-05,-0.00010830078125,-4.4921875e-05,-9.541015625e-05,0.00013759765625
1.142,0.00012641600799560547,0.00013081054687499999,-3.3544918060302736e-05,4.204101943969726e-05,-0.00010561522674560547,-4.877929306030273e-05,-9.858397674560546e-05,0.000132763671875
1.144,0.00013872070312499998,0.000148974609375,-2.8271484375e-05,5.708007431030273e-05,-9.6142578125e-05,-3.3740234375e-05,-8.1884765625e-05,0.000149755859375
1.146,0.000150146484375,0.000155126953125,-4.926757431030273e-05,7.026366424560546e-05,-9.624022674560546e-05,-1.7138671875e-05,-7.094726562499999e-05,0.000167626953125
1.148,0.00015302734375,0.00015742187499999998,-5.166015243530273e-05,6.748046875e-05,-0.00010380857849121093,-1.8359375e-05,-7.4609375e-05,0.00016630859374999998
1.15,0.000162646484375,0.00016333007812499998,-4.4287109374999995e-05,6.899414062499999e-05,-0.00010385740661621094,-2.6513671874999997e-05,-7.9345703125e-05,0.000155029296875
1.152,0.000160546875,0.00015888671874999998,-4.58984375e-05,6.611327362060547e-05,-0.00010712889862060547,-2.529296875e-05,-8.300781249999999e-05,0.0001548828125
1.154,0.00013945312499999998,0.00014951171874999999,-5.771483993530273e-05,5.156249618530273e-05,-0.00011660154724121093,-3.0859374999999996e-05,-9.365234375e-05,0.000146484375
1.156,0.00012202148437499999,0.000139501953125,-6.7724609375e-05,4.0869140625e-05,-0.00012788084411621093,-2.9150390624999998e-05,-0.000105712890625,0.000138427734375
1.158,0.00012934570312499998,0.000144091796875,-6.303710174560547e-05,4.8388675689697266e-05,-0.00012124022674560546,-3.452148056030273e-05,-9.907225799560546e-05,0.000140869140625
1.16,0.000140234375,0.00015810546875,-5.2148433685302733e-05,6.201171493530273e-05,-0.0001029296875,-3.73046875e-05,-8.173828125e-05,0.00014980468749999998
1.162,0.000135400390625,0.000156787109375,-5.200194931030273e-05,6.4208984375e-05,-0.000103173828125,-3.7060546875e-05,-8.3447265625e-05,0.00015102539062499998
1.164,0.000140869140625,0.000154541015625,-4.5263671874999995e-05,6.430664062499999e-05,-0.000100439453125,-3.4130859374999995e-05,-7.9638671875e-05,0.000153564453125
1.166,0.00013818359375,0.00014882812499999998,-5.0976558685302734e-05,6.0449214935302734e-05,-0.0001041015625,-3.22265625e-05,-8.037109375e-05,0.0001533203125
1.168,0.000140234375,0.00014775390625,-5.390624618530273e-05,5.2636714935302734e-05,-0.00010244140625,-3.876953125e-05,-8.310546875e-05,0.00014970703125
1.17,0.00014072265625,0.00014248046875,-6.025390243530273e-05,4.658202743530273e-05,-9.912109374999999e-05,-4.12109375e-05,-8.574218749999999e-05,0.00014316406249999998
1.172,0.000156787109375,0.000148388671875,-4.7900386810302734e-05,5.327148056030273e-05,-0.000100439453125,-3.3251953125e-05,-8.1494140625e-05,0.000149755859375
1.174,0.00015458984375,0.000149609375,-5.087890243530273e-05,5.703124618530273e-05,-0.00011103514862060547,-3.1640625e-05,-8.45703125e-05,0.0001513671875
1.176,0.000149853515625,0.000153857421875,-4.868163681030273e-05,6.284179306030273e-05,-0.00010454100799560547,-2.8173828124999997e-05,-8.0029296875e-05,0.000152880859375
1.178,0.0001556640625,0.0001595703125,-3.388671875e-05,6.943358612060547e-05,-9.21875e-05,-2.080078125e-05,-7.1875e-05,0.000158203125
1.18,0.0001560546875,0.00016210937499999998,-2.98828125e-05,7.333983612060546e-05,-9.12109375e-05,-2.0507812499999998e-05,-7.109375e-05,0.00016005859375
1.182,0.000156103515625,0.00016186523437499998,-3.3642578125e-05,6.889647674560546e-05,-9.4775390625e-05,-2.6123046875e-05,-7.3876953125e-05,0.00015620117187499998
1.184,0.000165478515625,0.000160693359375,-3.5302734375e-05,6.479491424560547e-05,-9.2919921875e-05,-2.5048828125e-05,-7.2021484375e-05,0.00015766601562499998
1.186,0.00016679687499999998,0.00015927734375,-3.359375e-05,6.289062118530273e-05,-9.101562499999999e-05,-2.51953125e-05,-7.109375e-05,0.00015839843749999998
1.188,0.000161181640625,0.000161669921875,-4.1552734375e-05,6.079101181030273e-05,-9.731445312499999e-05,-2.6806640625e-05,-7.7294921875e-05,0.000156494140625
1.19,0.00015634765625,0.00016142578125,-4.8144527435302734e-05,6.0449214935302734e-05,-0.000102734375,-2.685547065734863e-05,-8.2421875e-05,0.0001533203125
1.192,0.000166455078125,0.000169677734375,-3.9697261810302736e-05,7.280272674560547e-05,-9.213866424560546e-05,-1.4208985328674316e-05,-6.9580078125e-05,0.00016704101562499998
1.194,0.00016513671875,0.00017138671875,-4.042968368530273e-05,7.402342987060547e-05,-9.111327362060547e-05,-1.2597657203674316e-05,-6.787109374999999e-05,0.0001693359375
1.196,0.00015449218749999998,0.00016699218749999999,-4.218749618530273e-05,6.611327362060547e-05,-9.2578125e-05,-1.748046875e-05,-7.099609375e-05,0.0001638671875
1.198,0.00015361328125,0.00016474609375,-4.453124618530273e-05,6.708983612060547e-05,-9.365233612060546e-05,-1.6015624999999998e-05,-7.060546875e-05,0.0001654296875
1.2,0.00014536132812499998,0.000148486328125,-4.6240230560302734e-05,7.094725799560547e-05,-9.409178924560547e-05,-1.4404297828674315e-05,-6.9189453125e-05,0.000169091796875
1.202,0.00014340820312499998,0.000136865234375,-4.5361324310302736e-05,6.694335174560546e-05,-9.770507049560546e-05,-2.1044921875e-05,-7.5244140625e-05,0.000163427734375
1.204,0.00015498046874999998,0.00014404296875,-3.49609375e-05,6.806639862060546e-05,-9.453124237060546e-05,-1.8164064407348633e-05,-7.197265625e-05,0.00016572265625
1.206,0.000158447265625,0.000142236328125,-3.0908203125e-05,6.918944549560547e-05,-9.243163299560546e-05,-1.5576173782348634e-05,-7.0654296875e-05,0.000167626953125
1.208,0.000162890625,0.00015126953124999998,-2.8515625e-05,7.236327362060546e-05,-8.720703124999999e-05,-1.2109375953674315e-05,-6.640624999999999e-05,0.00017236328125
1.21,0.00017333984375,0.0001654296875,-3.1347652435302734e-05,7.480467987060546e-05,-8.720702362060547e-05,-1.0449219703674315e-05,-6.552734374999999e-05,0.00017314453124999999
1.212,0.000176318359375,0.000173486328125,-3.315429306030273e-05,7.719725799560547e-05,-8.764647674560547e-05,-7.958985328674317e-06,-6.372069931030273e-05,0.000173583984375
1.214,0.00016625976562499999,0.00016752929687499998,-4.067382431030273e-05,6.918944549560547e-05,-9.389647674560546e-05,-1.6552734375e-05,-7.0849609375e-05,0.000164697265625
1.216,0.000157568359375,0.000165380859375,-4.477538681030273e-05,6.567382049560547e-05,-9.692382049560547e-05,-2.1630859375e-05,-7.6025390625e-05,0.000159326171875
1.218,0.00015185546875,0.00015478515625,-4.3945308685302736e-05,6.269530868530274e-05,-9.765624237060547e-05,-2.060546875e-05,-7.5e-05,0.0001615234375
1.22,0.00014213867187499999,0.00013500976562499998,-4.711913681030273e-05,5.698241806030273e-05,-9.9462890625e-05,-2.280273628234863e-05,-7.7880859375e-05,0.00015991210937499998
1.222,0.000144482421875,0.000139501953125,-5.395507431030273e-05,5.7080078124999995e-05,-0.00010356445312499999,-3.2080078125e-05,-8.4716796875e-05,0.00015200195312499998
1.224,0.000154638671875,0.000151708984375,-4.750976181030273e-05,6.186523056030273e-05,-9.1162109375e-05,-2.6025390625e-05,-7.3486328125e-05,0.000159521484375
1.226,0.00014638671875,0.00014931640624999998,-4.140624618530273e-05,7.050780487060546e-05,-8.125e-05,-2.021484375e-05,-6.552734374999999e-05,0.0001642578125
1.228,0.00013818359375,0.00014306640625,-4.140624618530273e-05,9.970702362060547e-05,-9.765624237060547e-05,-1.3378907203674316e-05,-7.6171875e-05,0.0001609375
1.23,0.00013837890625,0.0001416015625,-5.6445308685302735e-05,0.00011025390625,-0.00011416014099121093,-1.4453124999999999e-05,-8.906249999999999e-05,0.00015302734375
1.232,0.00014829101562499999,0.00015541992187499999,-5.434569931030273e-05,4.3798828125e-05,-0.00010727538299560546,-2.4462890625e-05,-8.3349609375e-05,0.000157470703125
1.234,0.000125048828125,0.00013500976562499998,-7.2607421875e-05,2.2705078125e-05,-0.00012348631286621093,-2.4365234375e-05,-0.000101513671875,0.000146142578125
1.236,0.000128076171875,0.000133349609375,-6.6259765625e-05,3.5400390625e-05,-0.00012094725799560546,-3.6376953125e-05,-0.00010170898437499999,0.000142041015625
1.238,0.00013403320312499998,0.00013823242187499998,-5.473632431030273e-05,5.346680068969726e-05,-0.00011284178924560546,-3.959960556030273e-05,-9.321288299560547e-05,0.00014682617187499998
1.24,0.00013920898437499998,0.000136376953125,-4.545898056030273e-05,6.567382049560547e-05,-0.00010366210174560547,-2.6611328125e-05,-8.3544921875e-05,0.000157861328125
1.242,0.00013549804687499998,0.00013774414062499998,-4.565429306030273e-05,6.967772674560547e-05,-0.00010141600799560546,-2.3291015625e-05,-8.364257812499999e-05,0.00016010742187499998
1.244,0.000133203125,0.0001408203125,-4.4140621185302734e-05,6.923827362060547e-05,-9.921874237060547e-05,-2.431640625e-05,-8.056640624999999e-05,0.0001607421875
1.246,0.000124609375,0.0001361328125,-5.0781246185302735e-05,6.513671875e-05,-0.00010146484374999999,-2.8515625e-05,-8.22265625e-05,0.00015595703124999998
1.248,0.000107958984375,0.000129638671875,-6.079101181030273e-05,5.922851181030273e-05,-0.000108154296875,-3.4912109375e-05,-8.930664062499999e-05,0.000146044921875
1.25,9.731445312499999e-05,0.000126025390625,-7.143554687499999e-05,5.180663681030273e-05,-0.00011665037536621094,-4.0087890624999996e-05,-9.7021484375e-05,0.000138427734375
1.252,0.00010341796875,0.00011894531249999999,-7.4609375e-05,4.638671493530273e-05,-0.00012236326599121094,-4.1796875e-05,-9.970703125e-05,0.00013574218749999999
1.254,0.000103173828125,0.000106103515625,-8.2470703125e-05,3.9404293060302734e-05,-0.00013022459411621092,-4.926757431030273e-05,-0.00010747068786621093,0.00012836914062499998
1.256,0.00010429687499999999,0.0001029296875,-7.9296875e-05,4.1992183685302734e-05,-0.00012685545349121094,-4.7167968749999996e-05,-0.000105859375,0.0001298828125
1.258,0.00010727539062499999,0.000104248046875,-7.0654296875e-05,4.526366806030273e-05,-0.00012163084411621093,-4.2333984375e-05,-0.000101025390625,0.000136669921875
1.26,0.000110791015625,0.000105517578125,-6.6943359375e-05,4.448241806030273e-05,-0.00012280271911621092,-4.3115234374999995e-05,-0.000101904296875,0.00013774414062499998
1.262,0.00010361328125,9.814453124999999e-05,-7.8125e-05,3.4667964935302734e-05,-0.00013476560974121093,-5.4003906249999995e-05,-0.00011513671874999999,0.00012724609375
1.264,0.000104248046875,0.00010112304687499999,-8.178710937499999e-05,3.833007431030273e-05,-0.00013481443786621093,-5.0634765625e-05,-0.000114990234375,0.000130029296875
1.266,9.829101562499999e-05,0.000111376953125,-8.374023437499999e-05,4.116210556030273e-05,-0.00013471678161621094,-4.8486328125e-05,-0.000114697265625,0.000131005859375
1.268,9.013671875e-05,0.00010927734375,-8.408202362060547e-05,4.052733993530273e-05,-0.00013623045349121093,-4.882812118530273e-05,-0.00011523435974121093,0.00013212890625
1.27,9.4677734375e-05,9.731445312499999e-05,-8.569335174560547e-05,3.4130863189697265e-05,-0.00013735350036621092,-4.848632431030273e-05,-0.00011528318786621094,0.000134130859375
1.272,0.00010478515624999999,0.0001064453125,-7.509765625e-05,4.882812118530273e-05,-0.00012685545349121094,-3.408203125e-05,-0.00010429687499999999,0.00014443359375
1.274,0.00010527343749999999,0.0001119140625,-7.34375e-05,4.9316402435302734e-05,-0.00012714842224121093,-3.4374999999999995e-05,-0.00010527343749999999,0.0001421875
1.276,0.000103759765625,0.000104248046875,-7.6318359375e-05,3.9892574310302735e-05,-0.00013149412536621094,-4.2724609375e-05,-0.000108642578125,0.000135595703125
1.278,0.00011015625,0.000105078125,-7.4609375e-05,3.388671493530273e-05,-0.00013144529724121092,-4.912109375e-05,-0.00010771484375,0.00013193359375
1.28,0.000109814453125,0.000102001953125,-6.8310546875e-05,3.2568355560302735e-05,-0.00012895506286621092,-5.0048828125e-05,-0.000106591796875,0.000130029296875
1.282,0.000102294921875,9.9072265625e-05,-8.2958984375e-05,2.6806640625e-05,-0.00013598631286621093,-5.6884765624999996e-05,-0.000113720703125,0.00012416992187499999
1.284,0.00010541992187499999,0.000102685546875,-8.4423828125e-05,2.9248046874999998e-05,-0.00013393553161621094,-5.4833984375e-05,-0.000110986328125,0.000126318359375
1.286,0.000107421875,0.000107421875,-8.056639862060546e-05,3.261719131469726e-05,-0.00012880857849121094,-5.175780868530273e-05,-0.00010595701599121093,0.0001302734375
1.288,0.00011132812499999999,0.0001091796875,-7.333984375e-05,3.6816402435302735e-05,-0.00011767578125,-4.7167968749999996e-05,-9.873046875e-05,0.00013505859375
1.29,0.000109814453125,0.00011020507812499999,-7.5732421875e-05,3.715819931030273e-05,-0.000116064453125,-4.7509765625e-05,-9.9462890625e-05,0.000133447265625
1.292,0.00011923828125,0.0001240234375,-7.021484374999999e-05,4.5312496185302734e-05,-0.00012060545349121093,-3.916015625e-05,-9.7265625e-05,0.00013955078125
1.294,0.000125,0.0001294921875,-7.021484374999999e-05,4.4628902435302735e-05,-0.00013339842224121092,-4.0527343749999995e-05,-0.00010673828125,0.000136328125
1.296,0.000123388671875,0.000127685546875,-7.377929687499999e-05,3.8916011810302734e-05,-0.00013696287536621094,-4.7509765625e-05,-0.00011391601562499999,0.000129931640625
1.298,0.00012509765625,0.00012910156249999998,-7.314453125e-05,3.759765243530273e-05,-0.00013515623474121094,-4.794921875e-05,-0.00011298828125,0.00013173828125
1.3,0.00012236328125,0.00012763671874999998,-6.874999999999999e-05,3.808593368530273e-05,-0.00013222654724121094,-4.638671875e-05,-0.00011005859375,0.0001341796875
1.302,0.00011279296874999999,0.00012431640625,-7.675780487060546e-05,3.0371097564697265e-05,-0.00013798826599121093,-5.048827743530273e-05,-0.00011386717224121093,0.00013154296875
1.304,0.000131298828125,0.000142236328125,-6.8408203125e-05,4.614257431030273e-05,-0.00012524412536621092,-3.9501953125e-05,-9.829101562499999e-05,0.00014340820312499998
1.306,0.00013310546875,0.00013427734374999998,-6.7578125e-05,4.6972652435302734e-05,-0.00011630857849121093,-3.6035156249999995e-05,-9.0234375e-05,0.00014902343749999999
1.308,0.00012529296875,0.00012578125,-7.304687499999999e-05,4.0820308685302734e-05,-0.00011962889099121093,-3.9453125e-05,-9.453125e-05,0.00014443359375
1.31,0.00012031249999999999,0.00011865234375,-7.6171875e-05,3.691405868530273e-05,-0.00012705076599121094,-4.345703125e-05,-0.00010195312499999999,0.0001369140625
1.312,0.0001185546875,0.00011904296875,-7.724609374999999e-05,3.8281246185302736e-05,-0.00012607420349121094,-3.505859375e-05,-0.00010078125,0.00013876953125
1.314,0.00010996093749999999,0.00011044921874999999,-8.525390625e-05,2.587890625e-05,-0.00013623045349121093,-3.33984375e-05,-0.00011083984374999999,0.00013271484375
1.316,0.00012451171875,0.0001240234375,-7.900390625e-05,3.339843368530273e-05,-0.00013085935974121093,-4.7851562499999995e-05,-0.0001072265625,0.0001302734375
1.318,0.00013935546875,0.00014414062499999998,-7.578125e-05,4.726562118530273e-05,-0.00012138671875,-5.17578125e-05,-9.794921875e-05,0.00013388671875
1.32,0.000146044921875,0.000157958984375,-6.5576171875e-05,5.678710556030273e-05,-0.00010961914062499999,-3.9794921875e-05,-8.6376953125e-05,0.000144775390625
1.322,0.00013994140624999998,0.00014306640625,-6.406249999999999e-05,5.1464839935302734e-05,-0.00011123046875,-4.12109375e-05,-8.935546875e-05,0.00014238281249999999
1.324,0.0001298828125,0.0001330078125,-5.966796493530273e-05,5.156249618530273e-05,-0.00010791015625,-3.92578125e-05,-8.564453125e-05,0.00014414062499999998
1.326,0.00012314453125,0.00012998046875,-5.566405868530273e-05,5.292968368530273e-05,-0.00010595703125,-3.6035156249999995e-05,-8.251953124999999e-05,0.00014707031249999998
1.328,0.00012216796875,0.00013134765624999998,-5.8300777435302733e-05,5.136718368530273e-05,-0.00010937499999999999,-3.740234375e-05,-8.466796875e-05,0.0001455078125
1.33,0.000127685546875,0.000141943359375,-6.342773056030274e-05,4.711913681030273e-05,-0.00011811523437499999,-4.4775390624999995e-05,-9.2919921875e-05,0.000137646484375
1.332,0.000143603515625,0.000154052734375,-6.049804306030273e-05,5.083007431030273e-05,-0.00011713865661621094,-3.9794921875e-05,-9.2529296875e-05,0.000139013671875
1.334,0.00014018554687499998,0.000151708984375,-6.5771484375e-05,5.161132431030273e-05,-0.00011723632812499999,-4.3115234374999995e-05,-9.1845703125e-05,0.000138525390625
1.336,0.0001369140625,0.00015126953124999998,-6.416015625e-05,5.8789058685302734e-05,-0.00011210935974121093,-3.5546875e-05,-8.59375e-05,0.000146875
1.338,0.000145263671875,0.000159423828125,-5.766601181030273e-05,6.284179306030273e-05,-0.00010678709411621094,-2.6318359374999998e-05,-8.0224609375e-05,0.000156103515625
1.34,0.000150830078125,0.000156982421875,-5.3369136810302734e-05,6.5380859375e-05,-0.00010512693786621093,-2.2412109374999998e-05,-7.8662109375e-05,0.00016010742187499998
1.342,0.0001443359375,0.0001482421875,-5.624999618530273e-05,5.8593746185302735e-05,-0.00011191404724121093,-3.10546875e-05,-8.906249999999999e-05,0.000151171875
1.344,0.0001373046875,0.00014541015625,-6.318358993530274e-05,5.683593368530273e-05,-0.000105078125,-3.3984375e-05,-8.603515625e-05,0.00014970703125
1.346,0.00013466796875,0.0001353515625,-6.552734374999999e-05,5.624999618530273e-05,-0.0001025390625,-3.8183593749999996e-05,-8.388671874999999e-05,0.00014755859374999998
1.348,0.00014091796874999998,0.00013876953125,-6.123046493530274e-05,6.083983993530273e-05,-0.00011455077362060546,-3.134765625e-05,-8.896484375e-05,0.00014990234375
1.35,0.00013749999999999998,0.00014970703125,-6.015624618530273e-05,5.390624618530273e-05,-0.00011884764862060546,-3.623046493530273e-05,-9.238280487060546e-05,0.0001466796875
1.352,0.00014384765625,0.0001599609375,-4.882812118530273e-05,6.230468368530273e-05,-0.00010634764862060546,-2.763671875e-05,-8.1640625e-05,0.00015498046874999998
1.354,0.000142041015625,0.000158056640625,-5.180663681030273e-05,6.215819931030273e-05,-0.00010502929687499999,-2.9833984374999997e-05,-8.364257812499999e-05,0.000151806640625
1.356,0.000135888671875,0.00016088867187499998,-5.7861324310302734e-05,6.811523437499999e-05,-0.00011030271911621093,-3.1591796875e-05,-8.9599609375e-05,0.00014809570312499998
1.358,0.00012421875,0.0001513671875,-6.69921875e-05,8.574218749999999e-05,-0.00011982420349121094,-2.587890625e-05,-9.804687499999999e-05,0.00014140624999999998
1.36,0.00011445311737060546,0.000132421875,-7.36328125e-05,0.00010517577362060546,-0.00012490233612060547,-1.2109375953674315e-05,-0.0001001953125,0.0001416015625
1.362,0.00012319335937499998,0.000124853515625,-6.274413681030273e-05,3.5595703124999996e-05,-0.000111279296875,-3.6474609375e-05,-8.8232421875e-05,0.000147607421875
1.364,0.000136669921875,0.000139306640625,-5.5712886810302734e-05,3.7060546875e-05,-9.9365234375e-05,-4.1552734375e-05,-7.749023437499999e-05,0.000157373046875
1.366,0.00013466796875,0.00014335937499999999,-6.220702743530274e-05,5.224609375e-05,-0.00010302734375,-3.388671875e-05,-8.066406249999999e-05,0.0001572265625
1.368,0.00013774414062499998,0.000150634765625,-5.063476181030273e-05,6.684569549560547e-05,-0.00010092772674560546,-2.3779296875e-05,-7.700195312499999e-05,0.00016157226562499999
1.37,0.000124609375,0.000146484375,-4.941405868530273e-05,6.89453125e-05,-0.00010292967224121093,-2.255859375e-05,-8.007812499999999e-05,0.00015937499999999998
1.372,0.00012583007049560545,0.000145263671875,-4.5361324310302736e-05,7.182616424560547e-05,-0.00010092772674560546,-1.9091796874999998e-05,-7.758789062499999e-05,0.00016235351562499998
1.374,0.00012763671112060547,0.00013330078124999998,-5.292968368530273e-05,6.611327362060547e-05,-0.00010751952362060546,-2.4511718749999997e-05,-8.41796875e-05,0.0001560546875
1.376,0.00013095703125,0.00012373046112060547,-5.0976558685302734e-05,6.279296493530273e-05,-0.00011201171112060546,-2.822265625e-05,-9.08203125e-05,0.00014814453125
1.378,0.0001353515625,0.00013046875,-5.8789058685302734e-05,6.357421493530274e-05,-0.00011152342987060546,-2.6953125e-05,-8.837890625e-05,0.00015068359375
1.38,0.00013872070312499998,0.000137646484375,-5.434569931030273e-05,6.440428924560547e-05,-0.00010317382049560547,-2.670898628234863e-05,-8.2861328125e-05,0.000154150390625
